time (s)	coil I (A)	last det (V)	int current (uC)
2641.669560	1.024292	0.557549	433.275513
2641.670535	1.515374	0.557549	1910.764771
2641.671491	1.506669	0.557549	3351.140137
2641.672427	0.743379	0.557549	4046.942871
2641.673288	0.092864	0.557549	4126.898437
2641.674332	0.085836	0.557549	4216.511230
2641.675213	0.085829	0.557549	4292.126465
2641.676078	0.085942	0.557549	4366.466797
2641.677000	0.086030	0.557549	4445.786621
2641.677989	0.085909	0.557549	4530.750977
2641.678912	0.085931	0.557549	4610.065430
2641.679795	0.085942	0.557549	4685.952637
2641.680791	0.085957	0.557549	4771.565918
2641.681706	0.085902	0.557549	4850.166504
2642.716942	1.103335	0.544247	548.357483
2642.717911	1.523921	0.544247	2025.036865
2642.718797	1.506108	0.544247	3359.448730
2642.719872	0.539517	0.544247	3939.428955
2642.720926	0.086367	0.544247	4030.459961
2642.721817	0.085873	0.544247	4106.972656
2642.722757	0.086005	0.544247	4187.816895
2642.723824	0.085906	0.544247	4279.478516
2642.724763	0.085928	0.544247	4360.164551
2642.725627	0.085950	0.544247	4434.425293
2642.726685	0.085975	0.544247	4525.387207
2642.727690	0.085990	0.544247	4611.807129
2642.728582	0.085865	0.544247	4688.398926
2642.729542	0.086038	0.544247	4770.995117
2643.726109	1.089379	0.559837	567.566284
2643.727163	1.524071	0.559837	2173.937256
2643.728097	1.500227	0.559837	3575.149414
2643.728964	0.571835	0.559837	4070.930176
2643.730046	0.086880	0.559837	4164.934082
2643.731048	0.085865	0.559837	4250.971191
2643.731931	0.085844	0.559837	4326.770996
2643.732930	0.085913	0.559837	4412.598145
2643.733985	0.085902	0.559837	4503.225098
2643.734873	0.085906	0.559837	4579.509277
2643.735728	0.085869	0.559837	4652.927246
2643.736821	0.086052	0.559837	4746.982422
2643.737788	0.085880	0.559837	4830.028320
2643.738654	0.085800	0.559837	4904.330566
2644.773142	1.113798	0.555491	562.467834
2644.774156	1.524433	0.555491	2108.243408
2644.775059	1.503497	0.555491	3465.901367
2644.776038	0.604420	0.555491	4057.628662
2644.777079	0.086902	0.555491	4148.093262
2644.777993	0.085781	0.555491	4226.497559
2644.778852	0.085785	0.555491	4300.187012
2644.779918	0.086071	0.555491	4391.937988
2644.780909	0.085924	0.555491	4477.088867
2644.781783	0.085865	0.555491	4552.135254
2644.782774	0.085909	0.555491	4637.271484
2644.783820	0.085862	0.555491	4727.083008
2644.784711	0.085800	0.555491	4803.530273
2644.785577	0.085865	0.555491	4877.889648
2645.782202	1.047554	0.560413	445.210297
2645.783297	1.522152	0.560413	2111.966797
2645.784277	1.501055	0.560413	3583.000488
2645.785144	0.595821	0.560413	4099.577637
2645.786220	0.087034	0.560413	4193.226074
2645.787267	0.085942	0.560413	4283.207520
2645.788147	0.085906	0.560413	4358.804687
2645.789072	0.086012	0.560413	4438.365723
2645.790136	0.085975	0.560413	4529.843262
2645.791085	0.085946	0.560413	4611.406250
2645.791950	0.085898	0.560413	4685.708496
2645.792983	0.086027	0.560413	4774.574219
2645.794006	0.085909	0.560413	4862.459473
2645.794900	0.085942	0.560413	4939.291992
2646.828483	1.036205	0.564373	443.495667
2646.829523	1.520925	0.564373	2025.258057
2646.830543	1.500941	0.564373	3556.218018
2646.831435	0.580283	0.564373	4073.830566
2646.832377	0.089209	0.564373	4157.865234
2646.833427	0.085975	0.564373	4248.139160
2646.834360	0.085891	0.564373	4328.275391
2646.835218	0.085924	0.564373	4401.998047
2646.836292	0.086012	0.564373	4494.375000
2646.837309	0.085822	0.564373	4581.655273
2646.838179	0.085917	0.564373	4656.402832
2646.839138	0.085950	0.564373	4738.828613
2646.840193	0.085902	0.564373	4829.455566
2646.841113	0.085898	0.564373	4908.481934
2647.838649	1.028020	0.548763	437.936523
2647.839642	1.517670	0.548763	1944.982544
2647.840650	1.503318	0.548763	3460.327148
2647.841551	0.659374	0.548763	4054.422852
2647.842412	0.090802	0.548763	4132.603516
2647.843521	0.086045	0.548763	4228.027344
2647.844429	0.085844	0.548763	4305.973145
2647.845307	0.085898	0.548763	4381.392090
2647.846318	0.086008	0.548763	4468.346680
2647.847314	0.085880	0.548763	4553.883301
2647.848200	0.085902	0.548763	4629.992676
2647.849054	0.085939	0.548763	4703.384277
2647.850139	0.085939	0.548763	4796.627930
2647.851038	0.085895	0.548763	4873.847168
2648.885197	1.052131	0.557633	460.833496
2648.886068	1.516461	0.557633	1781.671143
2648.887047	1.509580	0.557633	3259.549805
2648.887988	0.820452	0.557633	4031.594727
2648.888860	0.094904	0.557633	4114.350586
2648.889798	0.085873	0.557633	4194.899414
2648.890761	0.085895	0.557633	4277.616211
2648.891680	0.085876	0.557633	4356.536621
2648.892560	0.085869	0.557633	4432.101562
2648.893593	0.085946	0.557633	4520.883789
2648.894501	0.085865	0.557633	4598.849609
2648.895386	0.085880	0.557633	4674.853516
2648.896294	0.085953	0.557633	4752.899414
2648.897299	0.085814	0.557633	4839.142578
2649.895769	1.166766	0.543071	681.391541
2649.896814	1.524752	0.543071	2274.757568
2649.897706	1.499637	0.543071	3612.434082
2649.898635	0.522539	0.543071	4097.873047
2649.899700	0.086418	0.543071	4189.908691
2649.900642	0.085880	0.543071	4270.807617
2649.901499	0.085887	0.543071	4344.413086
2649.902521	0.086019	0.543071	4432.324707
2649.903547	0.085961	0.543071	4520.520508
2649.904438	0.085902	0.543071	4597.059082
2649.905361	0.085862	0.543071	4676.309570
2649.906441	0.085902	0.543071	4769.083984
2649.907380	0.085847	0.543071	4849.694336
2649.908253	0.085833	0.543071	4924.625977
2650.941115	1.024731	0.554931	430.387177
2650.942076	1.515582	0.554931	1886.861694
2650.943129	1.503226	0.554931	3469.758789
2650.944059	0.600392	0.554931	4028.123291
2650.944921	0.089414	0.554931	4105.198242
2650.945975	0.085964	0.554931	4195.804687
2650.946967	0.085829	0.554931	4280.946777
2650.947856	0.085851	0.554931	4357.268066
2650.948859	0.085961	0.554931	4443.486816
2650.949896	0.085895	0.554931	4532.559570
2650.950809	0.085909	0.554931	4610.995117
2650.951669	0.085909	0.554931	4684.877441
2650.952763	0.086005	0.554931	4778.966309
2650.953746	0.085898	0.554931	4863.404297
2651.953157	1.090679	0.540932	540.976624
2651.954048	1.521280	0.540932	1896.437500
2651.954915	1.508141	0.540932	3203.995605
2651.956045	0.598759	0.540932	3880.592773
2651.957020	0.087158	0.540932	3965.572021
2651.957883	0.085917	0.540932	4039.718262
2651.958937	0.085994	0.540932	4130.355469
2651.959992	0.085891	0.540932	4220.970703
2651.960890	0.085887	0.540932	4298.097656
2651.961817	0.085990	0.540932	4377.810547
2651.962878	0.086005	0.540932	4469.061523
2651.963831	0.085895	0.540932	4550.919434
2651.964697	0.085844	0.540932	4625.259766
2651.965747	0.085909	0.540932	4715.464844
2652.995899	1.148441	0.546539	631.642639
2652.996870	1.524701	0.546539	2112.127197
2652.997810	1.501868	0.546539	3523.882812
2652.998684	0.615864	0.546539	4062.148193
2652.999800	0.086715	0.546539	4158.922363
2653.000690	0.085829	0.546539	4235.310059
2653.001556	0.085847	0.546539	4309.653809
2653.002603	0.085957	0.546539	4399.650879
2653.003582	0.085844	0.546539	4483.691895
2653.004455	0.085928	0.546539	4558.707031
2653.005320	0.085972	0.546539	4633.072754
2653.006434	0.085884	0.546539	4728.747070
2653.007320	0.085862	0.546539	4804.820801
2653.008177	0.085939	0.546539	4878.470215
2654.010818	1.030657	0.538185	440.090424
2654.011814	1.515941	0.538185	1949.967773
2654.012862	1.502014	0.538185	3524.078613
2654.013778	0.576614	0.538185	4052.256836
2654.014637	0.089081	0.538185	4128.777344
2654.015703	0.085957	0.538185	4220.407715
2654.016706	0.085800	0.538185	4306.464844
2654.017599	0.085854	0.538185	4383.132812
2654.018573	0.085851	0.538185	4466.751465
2654.019631	0.085854	0.538185	4557.585449
2654.020532	0.085833	0.538185	4634.920410
2654.021393	0.085880	0.538185	4708.863281
2654.022489	0.085946	0.538185	4803.060059
2654.023462	0.085759	0.538185	4886.503906
2655.051859	1.151825	0.538636	666.906616
2655.052916	1.524825	0.538636	2278.646973
2655.053801	1.499784	0.538636	3605.955566
2655.054673	0.542780	0.538636	4079.259277
2655.055781	0.086506	0.538636	4175.108398
2655.056739	0.085759	0.538636	4257.265625
2655.057597	0.085737	0.538636	4330.828125
2655.058608	0.085920	0.538636	4417.693848
2655.059652	0.085891	0.538636	4507.364258
2655.060542	0.085781	0.538636	4583.709473
2655.061454	0.085851	0.538636	4662.005371
2655.062532	0.085957	0.538636	4754.666992
2655.063475	0.085792	0.538636	4835.568848
2655.064341	0.085840	0.538636	4909.906250
2656.068543	1.037461	0.538850	440.920898
2656.069587	1.521914	0.538850	2029.799072
2656.070473	1.506694	0.538850	3364.730225
2656.071347	0.811406	0.538850	4073.899414
2656.072276	0.095753	0.538850	4162.854004
2656.073244	0.085668	0.538850	4245.780273
2656.074119	0.085748	0.538850	4320.810059
2656.074977	0.085829	0.538850	4394.451172
2656.076084	0.085935	0.538850	4489.581055
2656.076991	0.085833	0.538850	4567.431152
2656.077862	0.085884	0.538850	4642.235840
2656.078864	0.085942	0.538850	4728.350098
2656.079841	0.085767	0.538850	4812.144043
2656.080729	0.085803	0.538850	4888.337402
2657.106885	1.043914	0.543083	454.102417
2657.107750	1.515352	0.543083	1764.881470
2657.108848	1.504618	0.543083	3416.951904
2657.109824	0.601875	0.543083	4004.381836
2657.110687	0.089176	0.543083	4081.340820
2657.111763	0.085939	0.543083	4173.811035
2657.112796	0.085887	0.543083	4262.532715
2657.113690	0.085851	0.543083	4339.283203
2657.114614	0.085939	0.543083	4418.690430
2657.115670	0.085994	0.543083	4509.499512
2657.116612	0.085836	0.543083	4590.357422
2657.117470	0.085913	0.543083	4664.070801
2657.118517	0.086030	0.543083	4754.144531
2657.119533	0.085869	0.543083	4841.387695
2658.125838	1.099651	0.551865	555.323669
2658.126735	1.521870	0.551865	1920.441162
2658.127603	1.508221	0.551865	3229.577148
2658.128697	0.628883	0.551865	3917.575195
2658.129665	0.087312	0.551865	4002.093262
2658.130542	0.085829	0.551865	4077.365234
2658.131548	0.086030	0.551865	4163.911621
2658.132599	0.085880	0.551865	4254.171875
2658.133492	0.085873	0.551865	4330.856445
2658.134361	0.085869	0.551865	4405.476562
2658.135438	0.085972	0.551865	4498.067871
2658.136405	0.085869	0.551865	4581.103516
2658.137271	0.085811	0.551865	4655.415527
2658.138321	0.085994	0.551865	4745.708984
2659.162630	1.102072	0.546737	534.504700
2659.163520	1.520358	0.546737	1887.623047
2659.164400	1.510045	0.546737	3216.462891
2659.165366	0.833357	0.546737	4021.485596
2659.166341	0.090535	0.546737	4109.756836
2659.167269	0.085726	0.546737	4189.311035
2659.168133	0.085818	0.546737	4263.457520
2659.169213	0.085854	0.546737	4356.180176
2659.170103	0.085851	0.546737	4432.587402
2659.170982	0.085847	0.546737	4508.046875
2659.171862	0.085942	0.546737	4583.676270
2659.172897	0.085818	0.546737	4672.497559
2659.173771	0.085847	0.546737	4747.527832
2659.174651	0.085833	0.546737	4823.060547
2660.182527	1.085274	0.557609	531.783997
2660.183401	1.520057	0.557609	1860.314209
2660.184348	1.508031	0.557609	3288.419434
2660.185415	0.602783	0.557609	3931.589111
2660.186353	0.087751	0.557609	4013.899902
2660.187219	0.085847	0.557609	4088.243652
2660.188266	0.086060	0.557609	4178.348145
2660.189264	0.085891	0.557609	4264.067383
2660.190153	0.085924	0.557609	4340.454102
2660.191110	0.086052	0.557609	4422.806152
2660.192158	0.086023	0.557609	4512.958008
2660.193088	0.085906	0.557609	4592.850586
2660.193946	0.085854	0.557609	4666.513672
2660.195010	0.085997	0.557609	4758.014648
2661.217521	1.055039	0.551051	501.143555
2661.218587	1.522943	0.551051	2124.601074
2661.219537	1.501058	0.551051	3550.606445
2661.220405	0.607873	0.551051	4078.240723
2661.221470	0.087155	0.551051	4171.060547
2661.222508	0.085906	0.551051	4260.230957
2661.223381	0.085869	0.551051	4335.194824
2661.224340	0.085953	0.551051	4417.624023
2661.225404	0.085946	0.551051	4509.070801
2661.226320	0.085950	0.551051	4587.800781
2661.227187	0.086016	0.551051	4662.376465
2661.228236	0.086001	0.551051	4752.591309
2661.229233	0.085858	0.551051	4838.191895
2661.230117	0.085939	0.551051	4914.161621
2662.241085	1.128157	0.546773	627.255188
2662.242139	1.524785	0.546773	2234.378662
2662.243024	1.500469	0.546773	3562.293457
2662.243899	0.569322	0.546773	4060.450684
2662.245012	0.086558	0.546773	4156.789062
2662.245984	0.085825	0.546773	4240.210937
2662.246853	0.085909	0.546773	4314.866211
2662.247872	0.085931	0.546773	4402.430176
2662.248914	0.085964	0.546773	4492.004883
2662.249810	0.085814	0.546773	4568.894531
2662.250727	0.085950	0.546773	4647.710449
2662.251806	0.085946	0.546773	4740.446289
2662.252757	0.085774	0.546773	4822.017090
2662.253628	0.085851	0.546773	4896.792969
2663.272650	1.038805	0.547474	452.918945
2663.273516	1.515960	0.547474	1765.739868
2663.274572	1.506262	0.547474	3356.352783
2663.275604	0.571893	0.547474	3946.546631
2663.276495	0.088173	0.547474	4025.108398
2663.277450	0.085891	0.547474	4107.134277
2663.278503	0.085972	0.547474	4197.662598
2663.279441	0.085895	0.547474	4278.231934
2663.280300	0.085913	0.547474	4352.031250
2663.281376	0.085994	0.547474	4444.560547
2663.282380	0.085833	0.547474	4530.736328
2663.283263	0.085873	0.547474	4606.562012
2663.284248	0.085953	0.547474	4691.226074
2663.285298	0.085920	0.547474	4781.442383
2664.298008	1.114680	0.546809	561.798828
2664.299019	1.524525	0.546809	2103.093750
2664.299906	1.504252	0.546809	3437.364990
2664.300910	0.584279	0.546809	4023.980713
2664.301962	0.086840	0.546809	4115.335937
2664.302850	0.085906	0.546809	4191.620117
2664.303710	0.085935	0.546809	4265.524414
2664.304813	0.085939	0.546809	4360.314941
2664.305784	0.085792	0.546809	4443.619141
2664.306640	0.085913	0.546809	4517.160645
2664.307691	0.086012	0.546809	4607.559082
2664.308741	0.085898	0.546809	4697.752441
2664.309619	0.085873	0.546809	4773.148926
2664.310540	0.085898	0.546809	4852.261230
2665.329096	1.031001	0.551643	445.392426
2665.329968	1.515641	0.551643	1767.031250
2665.330831	1.513575	0.551643	3073.246826
2665.331894	0.833181	0.551643	3958.918457
2665.332791	0.095310	0.551643	4044.411621
2665.333673	0.085800	0.551643	4120.086914
2665.334551	0.085887	0.551643	4195.496094
2665.335587	0.085898	0.551643	4284.486816
2665.336462	0.085865	0.551643	4359.619141
2665.337340	0.085836	0.551643	4434.983398
2665.338325	0.085909	0.551643	4519.604004
2665.339249	0.085906	0.551643	4598.980957
2665.340126	0.085789	0.551643	4674.217773
2665.341094	0.085939	0.551643	4757.406250
2666.354464	1.110037	0.550028	567.228699
2666.355464	1.524598	0.550028	2091.827148
2666.356344	1.504750	0.550028	3416.006836
2666.357364	0.595671	0.550028	4023.591553
2666.358403	0.086814	0.550028	4113.791016
2666.359300	0.085811	0.550028	4190.763184
2666.360158	0.085833	0.550028	4264.407715
2666.361233	0.085880	0.550028	4356.729004
2666.362211	0.085789	0.550028	4440.630371
2666.363079	0.085851	0.550028	4515.148926
2666.364133	0.085796	0.550028	4605.577637
2666.365166	0.085902	0.550028	4694.314453
2666.366056	0.085891	0.550028	4770.757324
2666.366950	0.085909	0.550028	4847.560547
2667.384841	1.095417	0.559172	547.708740
2667.385751	1.521914	0.559172	1932.650513
2667.386613	1.508302	0.559172	3232.806885
2667.387700	0.626503	0.559172	3913.815430
2667.388684	0.087187	0.559172	3999.607910
2667.389575	0.085719	0.559172	4075.983643
2667.390557	0.085785	0.559172	4160.224609
2667.391620	0.085748	0.559172	4251.375000
2667.392524	0.085756	0.559172	4328.897949
2667.393384	0.085873	0.559172	4402.748535
2667.394470	0.085920	0.559172	4496.058105
2667.395445	0.085737	0.559172	4579.651855
2667.396307	0.085792	0.559172	4653.604980
2667.397330	0.085887	0.559172	4741.467773
2668.410409	1.111948	0.558564	594.892334
2668.411465	1.524467	0.558564	2204.729004
2668.412386	1.499887	0.558564	3586.124512
2668.413256	0.555417	0.558564	4069.337646
2668.414373	0.086375	0.558564	4165.817871
2668.415326	0.085620	0.558564	4247.414062
2668.416217	0.085748	0.558564	4323.815918
2668.417238	0.085752	0.558564	4411.368652
2668.418272	0.085715	0.558564	4499.998535
2668.419154	0.085715	0.558564	4575.599609
2668.420032	0.085774	0.558564	4650.909180
2668.421129	0.085858	0.558564	4745.095703
2668.422087	0.085737	0.558564	4827.231934
2668.422953	0.085752	0.558564	4901.493164
2669.441067	1.132683	0.558685	591.260620
2669.442019	1.523928	0.558685	2042.040283
2669.442901	1.506189	0.558685	3370.499023
2669.443841	0.737996	0.558685	4064.214844
2669.444890	0.087997	0.558685	4156.523437
2669.445770	0.085814	0.558685	4232.040039
2669.446625	0.085770	0.558685	4305.373535
2669.447652	0.085829	0.558685	4393.519531
2669.448616	0.085818	0.558685	4476.248047
2669.449493	0.085800	0.558685	4551.494141
2669.450368	0.085814	0.558685	4626.581543
2669.451482	0.085767	0.558685	4722.125488
2669.452376	0.085825	0.558685	4798.853027
2669.453241	0.085748	0.558685	4873.025391
2670.467009	1.034084	0.551184	444.656311
2670.468023	1.520559	0.551184	1986.503174
2670.468940	1.506317	0.551184	3367.795898
2670.469868	0.731785	0.551184	4046.892090
2670.470746	0.091729	0.551184	4127.429687
2670.471779	0.085789	0.551184	4216.049316
2670.472735	0.085825	0.551184	4298.098145
2670.473633	0.085778	0.551184	4375.126465
2670.474622	0.085844	0.551184	4460.025879
2670.475524	0.085862	0.551184	4537.473145
2670.476451	0.085858	0.551184	4617.063477
2670.477307	0.085822	0.551184	4690.526855
2670.478330	0.085789	0.551184	4778.288574
2670.479218	0.085825	0.551184	4854.501465
2671.497241	1.113087	0.556397	564.335205
2671.498249	1.524467	0.556397	2100.997559
2671.499128	1.504772	0.556397	3423.691895
2671.500111	0.616945	0.556397	4030.148437
2671.501159	0.087067	0.556397	4121.394531
2671.502053	0.085840	0.556397	4198.135254
2671.502921	0.085858	0.556397	4272.660156
2671.504013	0.085906	0.556397	4366.469238
2671.504991	0.085880	0.556397	4450.459961
2671.505889	0.085829	0.556397	4527.534180
2671.506859	0.085942	0.556397	4610.898437
2671.507914	0.085847	0.556397	4701.467285
2671.508817	0.085796	0.556397	4778.940918
2671.509682	0.085858	0.556397	4853.208008
2672.523308	1.114102	0.552554	597.158447
2672.524351	1.524342	0.552554	2187.047363
2672.525269	1.500674	0.552554	3564.666016
2672.526142	0.580895	0.552554	4071.787109
2672.527234	0.086766	0.552554	4166.536133
2672.528220	0.085763	0.552554	4251.098145
2672.529103	0.085763	0.552554	4326.826660
2672.530107	0.085891	0.552554	4413.061523
2672.531154	0.085811	0.552554	4502.905273
2672.532046	0.085847	0.552554	4579.480957
2672.532903	0.085858	0.552554	4653.061523
2672.534025	0.085833	0.552554	4749.365723
2672.534984	0.085752	0.552554	4831.602051
2672.535846	0.085752	0.552554	4905.520020
2673.554440	1.094385	0.555076	548.286804
2673.555328	1.521031	0.555076	1898.962891
2673.556225	1.507504	0.555076	3251.193604
2673.557338	0.581576	0.555076	3898.487549
2673.558290	0.087308	0.555076	3981.604980
2673.559153	0.085887	0.555076	4055.725830
2673.560192	0.085902	0.555076	4144.978027
2673.561210	0.085858	0.555076	4232.381836
2673.562094	0.085814	0.555076	4308.241699
2673.563032	0.085913	0.555076	4388.828125
2673.564075	0.085869	0.555076	4478.389648
2673.565003	0.085829	0.555076	4558.039062
2673.565862	0.085829	0.555076	4631.766113
2673.566898	0.085917	0.555076	4720.775879
2674.579764	1.107828	0.551152	601.550781
2674.580819	1.524452	0.551152	2209.847656
2674.581731	1.500183	0.551152	3578.014648
2674.582596	0.569886	0.551152	4070.966309
2674.583679	0.086876	0.551152	4165.053223
2674.584660	0.085836	0.551152	4249.258301
2674.585532	0.085847	0.551152	4324.117187
2674.586523	0.085931	0.551152	4409.275391
2674.587572	0.085909	0.551152	4499.394531
2674.588471	0.085884	0.551152	4576.604004
2674.589331	0.085873	0.551152	4650.454590
2674.590427	0.085953	0.551152	4744.659668
2674.591405	0.085887	0.551152	4828.657715
2674.592271	0.085887	0.551152	4903.036133
2675.611596	1.043393	0.559273	458.049744
2675.612473	1.516322	0.559273	1787.864258
2675.613333	1.512089	0.559273	3088.260498
2675.614370	0.820763	0.559273	3939.391602
2675.615266	0.094611	0.559273	4024.162598
2675.616144	0.085822	0.559273	4099.513672
2675.617118	0.085920	0.559273	4183.200195
2675.618063	0.085876	0.559273	4264.353516
2675.618988	0.085811	0.559273	4343.728027
2675.619847	0.085902	0.559273	4417.518066
2675.620901	0.085891	0.559273	4508.047363
2675.621811	0.085825	0.559273	4586.148437
2675.622693	0.085854	0.559273	4661.872070
2675.623589	0.085854	0.559273	4738.797852
2676.634819	1.038278	0.563418	449.574219
2676.635687	1.515505	0.563418	1765.032837
2676.636781	1.504603	0.563418	3411.068848
2676.637781	0.545625	0.563418	3956.693848
2676.638676	0.087971	0.563418	4035.427979
2676.639675	0.085909	0.563418	4121.251465
2676.640740	0.085891	0.563418	4212.725586
2676.641636	0.085895	0.563418	4289.687500
2676.642496	0.085789	0.563418	4363.465820
2676.643611	0.085964	0.563418	4459.315918
2676.644572	0.085770	0.563418	4541.741211
2676.645430	0.085778	0.563418	4615.338379
2676.646485	0.085851	0.563418	4705.911133
2676.647523	0.085767	0.563418	4794.937012
2677.668305	1.053362	0.564780	458.212372
2677.669241	1.516102	0.564780	1877.284180
2677.670296	1.503384	0.564780	3463.354004
2677.671239	0.593782	0.564780	4023.290283
2677.672099	0.089216	0.564780	4100.016113
2677.673146	0.085983	0.564780	4190.040039
2677.674165	0.085789	0.564780	4277.458496
2677.675043	0.085763	0.564780	4352.758301
2677.675983	0.085887	0.564780	4433.492676
2677.677038	0.085920	0.564780	4524.138672
2677.677955	0.085884	0.564780	4602.894043
2677.678821	0.085880	0.564780	4677.266113
2677.679864	0.085979	0.564780	4766.942383
2677.680889	0.085862	0.564780	4854.950684
2678.691036	1.051406	0.565654	471.029999
2678.691904	1.516714	0.565654	1787.537598
2678.692946	1.506255	0.565654	3357.055176
2678.693989	0.574102	0.565654	3955.843018
2678.694869	0.088264	0.565654	4033.515381
2678.695807	0.085953	0.565654	4114.139648
2678.696878	0.085950	0.565654	4206.191895
2678.697824	0.085822	0.565654	4287.378906
2678.698681	0.085854	0.565654	4360.956055
2678.699709	0.086005	0.565654	4449.368652
2678.700727	0.085822	0.565654	4536.734863
2678.701621	0.085818	0.565654	4613.456055
2678.702574	0.085931	0.565654	4695.348633
2678.703630	0.085814	0.565654	4785.968262
2679.725772	1.040336	0.566053	448.384674
2679.726731	1.516036	0.566053	1902.263550
2679.727684	1.507035	0.566053	3338.467773
2679.728599	0.758895	0.566053	4032.856934
2679.729475	0.092780	0.566053	4114.131836
2679.730486	0.085847	0.566053	4200.923340
2679.731383	0.085836	0.566053	4277.918457
2679.732260	0.085909	0.566053	4353.261230
2679.733157	0.085939	0.566053	4430.348145
2679.734154	0.085869	0.566053	4515.959473
2679.735079	0.085880	0.566053	4595.398437
2679.735956	0.085840	0.566053	4670.680176
2679.736973	0.085961	0.566053	4758.102051
2679.737886	0.085880	0.566053	4836.510742
2680.747240	1.080040	0.564272	496.818542
2680.748124	1.518926	0.564272	1839.548828
2680.749099	1.507526	0.564272	3309.386230
2680.750161	0.594888	0.564272	3941.156982
2680.751088	0.087715	0.564272	4022.468750
2680.751950	0.085836	0.564272	4096.459473
2680.753045	0.085994	0.564272	4190.622559
2680.754034	0.085822	0.564272	4275.500000
2680.754923	0.085895	0.564272	4351.860352
2680.755903	0.085997	0.564272	4436.137695
2680.756980	0.085931	0.564272	4528.686035
2680.757889	0.085876	0.564272	4606.747559
2680.758747	0.085858	0.564272	4680.414062
2680.759844	0.085917	0.564272	4774.664551
2681.783585	1.107916	0.561199	567.253113
2681.784472	1.521826	0.561199	1917.112793
2681.785352	1.507672	0.561199	3243.864258
2681.786458	0.595671	0.561199	3902.676758
2681.787411	0.087466	0.561199	3986.031738
2681.788277	0.085854	0.561199	4060.381836
2681.789329	0.085964	0.561199	4150.816406
2681.790361	0.085950	0.561199	4239.516602
2681.791245	0.085836	0.561199	4315.395996
2681.792180	0.085840	0.561199	4395.656250
2681.793257	0.086008	0.561199	4488.287109
2681.794189	0.085844	0.561199	4568.293457
2681.795055	0.085811	0.561199	4642.605469
2681.796095	0.085957	0.561199	4732.000977
2682.801339	1.029265	0.574609	438.466949
2682.802322	1.516893	0.574609	1929.573120
2682.803374	1.502311	0.574609	3510.003906
2682.804290	0.578016	0.574609	4039.466797
2682.805150	0.089194	0.574609	4116.173828
2682.806246	0.085939	0.574609	4210.362793
2682.807233	0.085865	0.574609	4295.111816
2682.808115	0.085862	0.574609	4370.841797
2682.809129	0.086104	0.574609	4458.150879
2682.810175	0.085935	0.574609	4548.039062
2682.811054	0.085876	0.574609	4623.524414
2682.811933	0.085935	0.574609	4699.061523
2682.813027	0.085975	0.574609	4793.118652
2682.813987	0.085880	0.574609	4875.563477
2683.840242	1.088617	0.575886	521.447510
2683.841125	1.519644	0.575886	1863.292725
2683.842100	1.507602	0.575886	3333.205078
2683.843156	0.601143	0.575886	3968.011719
2683.844073	0.088092	0.575886	4048.792236
2683.844933	0.085876	0.575886	4122.645996
2683.846018	0.085994	0.575886	4215.949219
2683.847021	0.085950	0.575886	4302.156738
2683.847903	0.085836	0.575886	4377.864258
2683.848911	0.085931	0.575886	4464.482910
2683.849958	0.085884	0.575886	4554.403320
2683.850863	0.085869	0.575886	4632.114746
2683.851721	0.085836	0.575886	4705.762207
2683.852793	0.085964	0.575886	4797.916016
2684.857808	1.051809	0.575620	467.003235
2684.858673	1.515956	0.575620	1778.304932
2684.859779	1.504296	0.575620	3442.055908
2684.860691	0.659041	0.575620	4043.100830
2684.861561	0.090385	0.575620	4121.735352
2684.862559	0.085844	0.575620	4207.407227
2684.863565	0.085829	0.575620	4293.750977
2684.864446	0.085847	0.575620	4369.382324
2684.865308	0.085917	0.575620	4443.442383
2684.866381	0.086005	0.575620	4535.725586
2684.867304	0.085825	0.575620	4614.942383
2684.868184	0.085880	0.575620	4690.517090
2684.869144	0.086008	0.575620	4773.084961
2684.870161	0.085920	0.575620	4860.465820
2685.897934	1.038864	0.574387	455.022217
2685.898813	1.517073	0.574387	1788.529053
2685.899848	1.507324	0.574387	3348.609619
2685.900751	0.774965	0.574387	4048.402588
2685.901628	0.093567	0.574387	4130.460937
2685.902531	0.085895	0.574387	4208.023926
2685.903555	0.085898	0.574387	4295.983887
2685.904438	0.085865	0.574387	4371.803223
2685.905305	0.085950	0.574387	4446.321777
2685.906294	0.086001	0.574387	4531.376953
2685.907212	0.085858	0.574387	4610.194824
2685.908136	0.085913	0.574387	4689.578613
2685.908997	0.085803	0.574387	4763.455078
2685.910032	0.085895	0.574387	4852.355957
2686.912787	1.107085	0.573143	560.184998
2686.913723	1.523295	0.573143	1985.988770
2686.914591	1.507211	0.573143	3294.247559
2686.915673	0.582539	0.573143	3924.554932
2686.916676	0.086770	0.573143	4011.585205
2686.917567	0.085847	0.573143	4088.074951
2686.918548	0.085946	0.573143	4172.388184
2686.919599	0.085891	0.573143	4262.659668
2686.920513	0.085924	0.573143	4341.194336
2686.921373	0.085851	0.573143	4415.025879
2686.922468	0.086016	0.573143	4509.212891
2686.923463	0.085789	0.573143	4594.572754
2686.924344	0.085844	0.573143	4670.200684
2686.925342	0.085950	0.573143	4755.978516
2687.955272	1.154019	0.573034	652.020447
2687.956334	1.524661	0.573034	2271.209961
2687.957215	1.499952	0.573034	3592.667969
2687.958131	0.547031	0.573034	4093.748535
2687.959203	0.086510	0.573034	4186.487305
2687.960154	0.085887	0.573034	4268.166504
2687.961010	0.085924	0.573034	4341.717285
2687.962049	0.086027	0.573034	4431.099121
2687.963093	0.085876	0.573034	4520.753906
2687.963965	0.085887	0.573034	4595.647949
2687.964893	0.085873	0.573034	4675.337891
2687.965953	0.085997	0.573034	4766.495117
2687.966888	0.085851	0.573034	4846.765625
2687.967754	0.085924	0.573034	4921.175781
2688.969261	1.132075	0.567185	595.471558
2688.970196	1.523727	0.567185	2020.156006
2688.971065	1.506215	0.567185	3329.056641
2688.972154	0.545966	0.567185	3923.613281
2688.973149	0.086517	0.567185	4009.697998
2688.974033	0.085800	0.567185	4085.544922
2688.975024	0.085858	0.567185	4170.630371
2688.976063	0.085785	0.567185	4259.760742
2688.976965	0.085811	0.567185	4337.161621
2688.977820	0.085876	0.567185	4410.585937
2688.978905	0.085822	0.567185	4503.702148
2688.979897	0.085880	0.567185	4588.895020
2688.980771	0.085876	0.567185	4663.951172
2688.981756	0.085935	0.567185	4748.597168
2690.011933	1.110648	0.566846	565.319885
2690.012958	1.524430	0.566846	2127.860596
2690.013844	1.503585	0.566846	3460.037109
2690.014833	0.612565	0.566846	4065.863525
2690.015870	0.086774	0.566846	4155.847656
2690.016789	0.085807	0.566846	4234.704102
2690.017646	0.085803	0.566846	4308.237305
2690.018702	0.085902	0.566846	4398.949707
2690.019712	0.085814	0.566846	4485.622070
2690.020604	0.085862	0.566846	4562.210937
2690.021587	0.085968	0.566846	4646.717285
2690.022637	0.085957	0.566846	4736.972168
2690.023550	0.085800	0.566846	4815.307129
2690.024415	0.085887	0.566846	4889.599609
2691.025438	1.109729	0.560469	565.961792
2691.026421	1.524327	0.560469	2064.375488
2691.027288	1.505750	0.560469	3369.860352
2691.028316	0.592848	0.560469	3979.308105
2691.029357	0.086700	0.560469	4069.563232
2691.030248	0.085800	0.560469	4146.010742
2691.031136	0.085887	0.560469	4222.278809
2691.032229	0.085895	0.560469	4316.161621
2691.033184	0.085789	0.560469	4398.089844
2691.034053	0.085792	0.560469	4472.643066
2691.035091	0.085854	0.560469	4561.760254
2691.036107	0.085847	0.560469	4648.980957
2691.036998	0.085833	0.560469	4725.457520
2691.037949	0.085887	0.560469	4807.136719
2692.068636	1.114376	0.559261	568.331848
2692.069639	1.524873	0.559261	2097.779541
2692.070533	1.503951	0.559261	3442.312012
2692.071557	0.576885	0.559261	4033.041992
2692.072586	0.086799	0.559261	4122.358398
2692.073468	0.085825	0.559261	4198.056152
2692.074350	0.085847	0.559261	4273.773437
2692.075437	0.085986	0.559261	4367.240723
2692.076387	0.085887	0.559261	4448.833984
2692.077244	0.085811	0.559261	4522.373535
2692.078261	0.085964	0.559261	4609.799316
2692.079309	0.085869	0.559261	4699.790039
2692.080196	0.085811	0.559261	4775.903809
2692.081128	0.085909	0.559261	4855.971191
2693.080762	1.041544	0.555482	441.614685
2693.081849	1.522152	0.555482	2096.194092
2693.082851	1.499256	0.555482	3598.449219
2693.083748	0.523125	0.555482	4067.692383
2693.084744	0.087762	0.555482	4155.104004
2693.085803	0.085906	0.555482	4246.078125
2693.086687	0.085873	0.555482	4321.989746
2693.087568	0.085854	0.555482	4397.627441
2693.088658	0.085829	0.555482	4491.180664
2693.089619	0.085807	0.555482	4573.641113
2693.090484	0.085862	0.555482	4647.911621
2693.091532	0.085942	0.555482	4737.979004
2693.092571	0.085884	0.555482	4827.212402
2693.093467	0.085767	0.555482	4904.059082
2694.124841	1.081260	0.550725	581.717773
2694.125875	1.524745	0.550725	2158.303955
2694.126756	1.502223	0.550725	3481.762207
2694.127632	0.649501	0.550725	4050.724854
2694.128690	0.087513	0.550725	4143.313965
2694.129631	0.085785	0.550725	4224.037598
2694.130506	0.085822	0.550725	4299.131348
2694.131458	0.085858	0.550725	4380.868164
2694.132487	0.085840	0.550725	4469.197266
2694.133380	0.085825	0.550725	4545.839355
2694.134241	0.085811	0.550725	4619.722168
2694.135314	0.085950	0.550725	4711.946289
2694.136247	0.085781	0.550725	4791.979980
2694.137120	0.085833	0.550725	4866.911621
2695.136462	1.038768	0.558963	447.709137
2695.137336	1.516348	0.558963	1772.996948
2695.138201	1.511188	0.558963	3080.174316
2695.139258	0.802980	0.558963	3928.923828
2695.140147	0.093856	0.558963	4012.362061
2695.141019	0.085719	0.558963	4087.109131
2695.142008	0.085876	0.558963	4172.041016
2695.142947	0.085770	0.558963	4252.579102
2695.143863	0.085840	0.558963	4331.208496
2695.144724	0.085825	0.558963	4405.104004
2695.145763	0.085800	0.558963	4494.249512
2695.146638	0.085807	0.558963	4569.330566
2695.147504	0.085822	0.558963	4643.651855
2695.148465	0.085862	0.558963	4726.165039
2696.181795	1.116412	0.541033	573.835937
2696.182740	1.523401	0.541033	2013.449829
2696.183608	1.506823	0.541033	3321.371826
2696.184688	0.573761	0.541033	3941.033691
2696.185696	0.086689	0.541033	4028.416748
2696.186582	0.085818	0.541033	4104.451172
2696.187566	0.085964	0.541033	4189.040039
2696.188615	0.085880	0.541033	4279.128418
2696.189531	0.085774	0.541033	4357.697266
2696.190386	0.085920	0.541033	4431.159180
2696.191470	0.085917	0.541033	4524.292969
2696.192467	0.085880	0.541033	4609.915527
2696.193339	0.085898	0.541033	4684.818848
2696.194328	0.085961	0.541033	4769.833984
2697.192898	1.036806	0.561968	444.789551
2697.193764	1.514850	0.561968	1756.649536
2697.194871	1.503864	0.561968	3421.426514
2697.195841	0.599187	0.561968	4002.637939
2697.196708	0.089125	0.561968	4079.909180
2697.197733	0.085898	0.561968	4167.955078
2697.198782	0.085891	0.561968	4258.054687
2697.199672	0.085792	0.561968	4334.409668
2697.200601	0.085895	0.561968	4414.206055
2697.201676	0.085884	0.561968	4506.531250
2697.202624	0.085840	0.561968	4587.907227
2697.203486	0.085880	0.561968	4661.936035
2697.204547	0.085972	0.561968	4753.151855
2697.205549	0.085763	0.561968	4839.086426
2698.237193	1.065201	0.544779	536.861511
2698.238250	1.523405	0.544779	2147.100098
2698.239188	1.500743	0.544779	3554.797363
2698.240057	0.595920	0.544779	4072.652100
2698.241111	0.087433	0.544779	4164.806152
2698.242132	0.085906	0.544779	4252.516113
2698.243008	0.085811	0.544779	4327.686035
2698.243964	0.085968	0.544779	4409.871582
2698.245012	0.085876	0.544779	4499.870117
2698.245923	0.085814	0.544779	4578.046875
2698.246785	0.085891	0.544779	4652.084961
2698.247832	0.085968	0.544779	4742.093262
2698.248841	0.085862	0.544779	4828.728027
2698.249730	0.085862	0.544779	4905.059082
2699.250359	1.024574	0.561130	431.345612
2699.251390	1.520284	0.561130	1998.758789
2699.252355	1.504039	0.561130	3450.156738
2699.253248	0.688268	0.561130	4064.779785
2699.254160	0.091377	0.561130	4148.115723
2699.255231	0.085902	0.561130	4240.116699
2699.256119	0.085781	0.561130	4316.290527
2699.256978	0.085847	0.561130	4390.033203
2699.258012	0.085891	0.561130	4478.844727
2699.258972	0.085818	0.561130	4561.229980
2699.259843	0.085895	0.561130	4636.044434
2699.260718	0.085895	0.561130	4711.202148
2699.261837	0.085880	0.561130	4807.302246
2699.262706	0.085829	0.561130	4881.887695
2700.293825	1.032949	0.546185	440.036377
2700.294848	1.517827	0.546185	1992.773560
2700.295776	1.505123	0.546185	3389.527832
2700.296718	0.686217	0.546185	4035.944336
2700.297576	0.091095	0.546185	4114.104004
2700.298621	0.085778	0.546185	4203.741699
2700.299491	0.085756	0.546185	4278.349121
2700.300363	0.085876	0.546185	4353.233398
2700.301325	0.085887	0.546185	4435.856934
2700.302273	0.085807	0.546185	4517.201660
2700.303191	0.085785	0.546185	4595.952148
2700.304070	0.085811	0.546185	4671.379395
2700.305105	0.085869	0.546185	4760.253906
2700.305992	0.085796	0.546185	4836.354980
2701.306556	1.037402	0.566629	437.783813
2701.307656	1.522482	0.566629	2112.513672
2701.308657	1.499410	0.566629	3613.423340
2701.309545	0.531885	0.566629	4085.737061
2701.310552	0.087990	0.566629	4174.342285
2701.311598	0.085822	0.566629	4264.111816
2701.312489	0.085789	0.566629	4340.549316
2701.313346	0.085906	0.566629	4414.170410
2701.314435	0.085953	0.566629	4507.773437
2701.315401	0.085767	0.566629	4590.624023
2701.316255	0.085781	0.566629	4663.881348
2701.317310	0.085997	0.566629	4754.608398
2701.318370	0.085854	0.566629	4845.614258
2701.319246	0.085811	0.566629	4920.784180
2702.350400	1.124253	0.545291	627.333130
2702.351448	1.524430	0.545291	2224.935547
2702.352351	1.500081	0.545291	3579.508301
2702.353221	0.562119	0.545291	4068.552002
2702.354319	0.086737	0.545291	4163.789062
2702.355272	0.085840	0.545291	4245.594238
2702.356143	0.085854	0.545291	4320.373535
2702.357131	0.085906	0.545291	4405.248535
2702.358193	0.085898	0.545291	4496.472656
2702.359086	0.085836	0.545291	4573.124512
2702.359963	0.085909	0.545291	4648.467285
2702.361054	0.086008	0.545291	4742.302246
2702.362017	0.085829	0.545291	4824.955566
2702.362885	0.085851	0.545291	4899.474121
2703.362492	1.032213	0.572268	439.722778
2703.363460	1.515557	0.572268	1906.781616
2703.364521	1.502139	0.572268	3500.550781
2703.365460	0.554366	0.572268	4021.100830
2703.366322	0.088667	0.572268	4097.531738
2703.367397	0.085873	0.572268	4189.845215
2703.368381	0.085741	0.572268	4274.214355
2703.369273	0.085715	0.572268	4350.672363
2703.370261	0.085851	0.572268	4435.493164
2703.371312	0.085807	0.572268	4525.676270
2703.372208	0.085814	0.572268	4602.565918
2703.373063	0.085865	0.572268	4675.980957
2703.374155	0.085876	0.572268	4769.757812
2703.375148	0.085789	0.572268	4854.945801
2704.407322	1.117463	0.545839	568.788818
2704.408322	1.524675	0.545839	2093.464355
2704.409223	1.503783	0.545839	3448.372559
2704.410225	0.586589	0.545839	4036.135010
2704.411260	0.086803	0.545839	4125.976074
2704.412153	0.085844	0.545839	4202.634277
2704.413008	0.085909	0.545839	4276.086914
2704.414103	0.085906	0.545839	4370.153809
2704.415062	0.085774	0.545839	4452.411133
2704.415930	0.085862	0.545839	4526.938965
2704.416955	0.085950	0.545839	4615.037598
2704.418005	0.085844	0.545839	4705.173340
2704.418878	0.085800	0.545839	4780.076172
2704.419749	0.085844	0.545839	4854.845703
2705.418956	1.043716	0.571302	452.972687
2705.419821	1.515352	0.571302	1763.751709
2705.420888	1.505673	0.571302	3370.304199
2705.421838	0.681200	0.571302	4017.444092
2705.422710	0.090769	0.571302	4096.594727
2705.423672	0.085822	0.571302	4179.155273
2705.424712	0.085756	0.571302	4268.341309
2705.425588	0.085748	0.571302	4343.457031
2705.426453	0.085803	0.571302	4417.676758
2705.427486	0.085844	0.571302	4506.353027
2705.428428	0.085748	0.571302	4587.127930
2705.429310	0.085759	0.571302	4662.767578
2705.430238	0.085880	0.571302	4742.464355
2705.431296	0.085829	0.571302	4833.271484
2706.463162	1.028635	0.551506	436.141357
2706.464154	1.516776	0.551506	1940.783203
2706.465106	1.505556	0.551506	3374.072021
2706.466038	0.705637	0.551506	4031.725830
2706.466901	0.091747	0.551506	4110.903320
2706.467932	0.085800	0.551506	4199.362793
2706.468812	0.085796	0.551506	4274.863281
2706.469691	0.085869	0.551506	4350.342285
2706.470651	0.085931	0.551506	4432.836426
2706.471629	0.085803	0.551506	4516.751953
2706.472536	0.085840	0.551506	4594.608887
2706.473414	0.085833	0.551506	4669.969727
2706.474441	0.085939	0.551506	4758.229004
2706.475339	0.085836	0.551506	4835.310059
2707.474654	1.066791	0.576510	483.256256
2707.475543	1.518468	0.576510	1833.174316
2707.476553	1.506500	0.576510	3354.739502
2707.477606	0.575065	0.576510	3960.282715
2707.478508	0.087755	0.576510	4039.437744
2707.479367	0.085898	0.576510	4113.224609
2707.480472	0.085931	0.576510	4208.178711
2707.481426	0.085785	0.576510	4290.017578
2707.482297	0.085785	0.576510	4364.736328
2707.483297	0.085961	0.576510	4450.697266
2707.484358	0.085844	0.576510	4541.777344
2707.485228	0.085858	0.576510	4616.474121
2707.486114	0.085873	0.576510	4692.557617
2707.487215	0.085887	0.576510	4787.119629
2708.519723	1.110740	0.556590	596.467224
2708.520783	1.524532	0.556590	2212.471680
2708.521707	1.499513	0.556590	3598.021484
2708.522577	0.543369	0.556590	4070.752686
2708.523683	0.086495	0.556590	4166.416504
2708.524646	0.085811	0.556590	4249.052246
2708.525534	0.085840	0.556590	4325.277832
2708.526556	0.085964	0.556590	4413.133301
2708.527600	0.085902	0.556590	4502.814941
2708.528480	0.085825	0.556590	4578.341309
2708.529361	0.085873	0.556590	4653.995117
2708.530443	0.085946	0.556590	4746.988770
2708.531407	0.085833	0.556590	4829.731445
2708.532269	0.085807	0.556590	4903.696777
2709.531840	1.032598	0.572712	438.854004
2709.532802	1.515231	0.572712	1896.505859
2709.533861	1.502461	0.572712	3487.611816
2709.534795	0.574856	0.572712	4024.527344
2709.535668	0.088770	0.572712	4102.022949
2709.536730	0.086045	0.572712	4193.402832
2709.537730	0.085847	0.572712	4279.250000
2709.538630	0.085851	0.572712	4356.515625
2709.539605	0.085942	0.572712	4440.309570
2709.540658	0.085957	0.572712	4530.822266
2709.541576	0.085891	0.572712	4609.670410
2709.542437	0.086027	0.572712	4683.739258
2709.543546	0.086041	0.572712	4779.159180
2709.544535	0.085851	0.572712	4864.065430
2710.575543	1.029349	0.556912	432.326721
2710.576608	1.521775	0.556912	2053.017090
2710.577624	1.500161	0.556912	3577.180664
2710.578521	0.543915	0.556912	4065.072266
2710.579488	0.088385	0.556912	4150.540527
2710.580542	0.085928	0.556912	4241.108398
2710.581460	0.085818	0.556912	4319.889160
2710.582323	0.085884	0.556912	4394.006836
2710.583420	0.085953	0.556912	4488.297852
2710.584406	0.085833	0.556912	4572.928711
2710.585304	0.085869	0.556912	4650.039062
2710.586299	0.085997	0.556912	4735.606445
2710.587336	0.085876	0.556912	4824.660156
2710.588226	0.085836	0.556912	4901.054199
2711.588831	1.064048	0.572776	477.757477
2711.589698	1.516747	0.572776	1792.776978
2711.590747	1.506024	0.572776	3372.596191
2711.591633	0.771302	0.572776	4055.970215
2711.592507	0.093354	0.572776	4137.562012
2711.593452	0.085840	0.572776	4218.680664
2711.594421	0.085847	0.572776	4301.866699
2711.595342	0.085854	0.572776	4380.938477
2711.596218	0.085803	0.572776	4456.102051
2711.597236	0.085887	0.572776	4543.535645
2711.598139	0.085844	0.572776	4621.052246
2711.599014	0.085840	0.572776	4696.162109
2711.599879	0.085961	0.572776	4770.518066
2711.600928	0.085829	0.572776	4860.552734
2712.631997	1.037208	0.562367	442.887939
2712.633079	1.522412	0.562367	2090.137695
2712.634087	1.499311	0.562367	3601.443604
2712.634986	0.513691	0.562367	4063.252197
2712.635956	0.088041	0.562367	4148.651855
2712.637002	0.085887	0.562367	4238.490234
2712.637920	0.085854	0.562367	4317.304687
2712.638780	0.085876	0.562367	4391.158203
2712.639856	0.085887	0.562367	4483.573242
2712.640842	0.085789	0.562367	4568.160645
2712.641733	0.085814	0.562367	4644.621094
2712.642745	0.085964	0.562367	4731.617187
2712.643799	0.085898	0.562367	4822.154297
2712.644689	0.085836	0.562367	4898.548340
2713.644246	1.042954	0.570983	462.028656
2713.645115	1.516263	0.570983	1779.661499
2713.646165	1.505998	0.570983	3360.959961
2713.647200	0.582319	0.570983	3963.660400
2713.648079	0.088253	0.570983	4041.234863
2713.649008	0.085851	0.570983	4120.990234
2713.650092	0.085931	0.570983	4214.139648
2713.651027	0.085887	0.570983	4294.444336
2713.651892	0.085836	0.570983	4368.692871
2713.652939	0.085891	0.570983	4458.621094
2713.653952	0.085785	0.570983	4545.520996
2713.654843	0.085818	0.570983	4621.984863
2713.655802	0.085950	0.570983	4704.410645
2713.656863	0.086027	0.570983	4795.685059
2714.687684	1.036487	0.565420	447.762329
2714.688550	1.515406	0.565420	1760.104370
2714.689651	1.504310	0.565420	3416.350098
2714.690645	0.546713	0.565420	3959.782471
2714.691537	0.088026	0.565420	4038.301758
2714.692524	0.085884	0.565420	4123.068848
2714.693579	0.085869	0.565420	4213.660645
2714.694478	0.085781	0.565420	4290.777832
2714.695337	0.085880	0.565420	4364.548828
2714.696430	0.086008	0.565420	4458.555664
2714.697389	0.085730	0.565420	4540.770508
2714.698246	0.085818	0.565420	4614.316406
2714.699320	0.085931	0.565420	4706.606934
2714.700350	0.085822	0.565420	4795.002930
2715.701434	1.023625	0.570746	430.946320
2715.702435	1.517563	0.570746	1950.027344
2715.703497	1.501553	0.570746	3544.676270
2715.704397	0.565210	0.570746	4053.365234
2715.705266	0.088978	0.570746	4130.687500
2715.706366	0.085884	0.570746	4225.159668
2715.707334	0.085807	0.570746	4308.220703
2715.708200	0.085847	0.570746	4382.564453
2715.709229	0.085997	0.570746	4471.055664
2715.710268	0.085865	0.570746	4560.270020
2715.711157	0.085869	0.570746	4636.607910
2715.712065	0.085924	0.570746	4714.626953
2715.713130	0.085895	0.570746	4806.104980
2715.714082	0.085865	0.570746	4887.849121
2716.743435	1.095432	0.562947	548.811523
2716.744319	1.521145	0.562947	1893.503662
2716.745214	1.507668	0.562947	3242.866943
2716.746317	0.590581	0.562947	3894.277832
2716.747282	0.087187	0.562947	3978.413818
2716.748146	0.085818	0.562947	4052.560547
2716.749170	0.085898	0.562947	4140.520508
2716.750195	0.085818	0.562947	4228.483887
2716.751087	0.085807	0.562947	4305.023437
2716.752004	0.085862	0.562947	4383.758789
2716.753064	0.085873	0.562947	4474.784180
2716.754016	0.085778	0.562947	4556.444336
2716.754877	0.085833	0.562947	4630.346191
2716.755929	0.085851	0.562947	4720.661133
2717.759165	1.044921	0.563579	443.046356
2717.760235	1.523284	0.563579	2072.959961
2717.761111	1.505369	0.563579	3391.662842
2717.761994	0.772606	0.563579	4073.874023
2717.762975	0.093380	0.563579	4165.479980
2717.763904	0.085822	0.563579	4245.208008
2717.764824	0.085792	0.563579	4324.136719
2717.765697	0.085836	0.563579	4399.071777
2717.766739	0.085865	0.563579	4488.543457
2717.767632	0.085789	0.563579	4565.152832
2717.768506	0.085796	0.563579	4640.138672
2717.769438	0.085906	0.563579	4720.202637
2717.770434	0.085781	0.563579	4805.640625
2717.771360	0.085833	0.563579	4885.121582
2718.799629	1.097640	0.557968	553.210754
2718.800551	1.522474	0.557968	1956.932129
2718.801412	1.508225	0.557968	3255.513916
2718.802483	0.638749	0.557968	3939.613770
2718.803481	0.087323	0.557968	4026.762207
2718.804351	0.085796	0.557968	4101.404785
2718.805272	0.085825	0.557968	4180.449707
2718.806133	0.085833	0.557968	4254.351562
2718.807093	0.085719	0.557968	4336.641602
2718.808019	0.085822	0.557968	4416.112305
2718.808908	0.085847	0.557968	4492.430664
2718.809842	0.085811	0.557968	4572.577637
2718.810789	0.085796	0.557968	4653.826172
2718.811711	0.085745	0.557968	4732.882812
2719.815973	1.114435	0.562677	572.819458
2719.816936	1.523851	0.562677	2040.288208
2719.817802	1.506548	0.562677	3344.958496
2719.818851	0.603603	0.562677	3978.138672
2719.819889	0.086916	0.562677	4068.357910
2719.820766	0.085906	0.562677	4143.697266
2719.821706	0.085909	0.562677	4224.452148
2719.822761	0.085869	0.562677	4315.043945
2719.823706	0.085829	0.562677	4396.152344
2719.824575	0.085865	0.562677	4470.769531
2719.825595	0.085961	0.562677	4558.449219
2719.826616	0.085851	0.562677	4646.103027
2719.827508	0.085803	0.562677	4722.639648
2719.828462	0.085975	0.562677	4804.660156
2720.855070	1.092063	0.558947	573.333069
2720.856126	1.524261	0.558947	2182.953125
2720.857048	1.500315	0.558947	3566.243652
2720.857917	0.581287	0.558947	4071.381836
2720.858997	0.086880	0.558947	4165.211914
2720.859998	0.085814	0.558947	4251.111816
2720.860873	0.085862	0.558947	4326.240723
2720.861873	0.085887	0.558947	4412.127930
2720.862917	0.085895	0.558947	4501.802246
2720.863811	0.085876	0.558947	4578.575684
2720.864667	0.085946	0.558947	4652.145508
2720.865748	0.085946	0.558947	4745.053223
2720.866729	0.085778	0.558947	4829.201172
2720.867620	0.085800	0.558947	4905.648437
2721.872666	1.106565	0.561879	564.348083
2721.873588	1.522687	0.561879	1968.265381
2721.874450	1.507427	0.561879	3267.667236
2721.875521	0.633721	0.561879	3946.382080
2721.876520	0.087166	0.561879	4033.460449
2721.877399	0.085825	0.561879	4108.900879
2721.878381	0.085997	0.561879	4193.350098
2721.879432	0.085898	0.561879	4283.629395
2721.880347	0.085862	0.561879	4362.192871
2721.881212	0.085884	0.561879	4436.482422
2721.882302	0.086016	0.561879	4530.239258
2721.883283	0.085887	0.561879	4614.494629
2721.884178	0.085854	0.561879	4691.334473
2721.885170	0.085950	0.561879	4776.596680
2722.910412	1.038061	0.552941	455.708984
2722.911275	1.515974	0.552941	1763.994629
2722.912313	1.506412	0.552941	3327.650635
2722.913278	0.693325	0.552941	3996.709473
2722.914152	0.090868	0.552941	4076.127930
2722.915039	0.085803	0.552941	4152.235352
2722.916135	0.085895	0.552941	4246.375977
2722.917036	0.085865	0.552941	4323.740723
2722.917902	0.085829	0.552941	4398.068359
2722.918929	0.085876	0.552941	4486.263672
2722.919912	0.085854	0.552941	4570.658691
2722.920782	0.085873	0.552941	4645.368164
2722.921883	0.086001	0.552941	4740.055176
2722.922906	0.085811	0.552941	4827.839355
2723.930054	1.041863	0.552260	451.126556
2723.930969	1.518417	0.552260	1840.477905
2723.931847	1.510386	0.552260	3166.596680
2723.932897	0.738761	0.552260	3942.295654
2723.933792	0.091512	0.552260	4024.199219
2723.934666	0.085756	0.552260	4099.149414
2723.935632	0.085913	0.552260	4182.141602
2723.936590	0.085862	0.552260	4264.397461
2723.937507	0.085781	0.552260	4343.059082
2723.938370	0.085836	0.552260	4417.135742
2723.939405	0.085807	0.552260	4505.945801
2723.940287	0.085829	0.552260	4581.646973
2723.941151	0.085807	0.552260	4655.784180
2723.942032	0.085869	0.552260	4731.435059
2724.966135	1.088642	0.548739	517.105164
2724.967010	1.519753	0.548739	1846.889404
2724.967973	1.507606	0.548739	3298.714111
2724.969054	0.588171	0.548739	3934.527344
2724.969967	0.087744	0.548739	4014.637695
2724.970834	0.085869	0.548739	4089.086182
2724.971913	0.085968	0.548739	4181.845703
2724.972905	0.085844	0.548739	4267.002441
2724.973803	0.085953	0.548739	4344.188477
2724.974779	0.086063	0.548739	4428.186035
2724.975828	0.085906	0.548739	4518.301270
2724.976731	0.085876	0.548739	4595.847656
2724.977594	0.085869	0.548739	4669.952637
2724.978693	0.086030	0.548739	4764.500000
2725.987263	1.032693	0.561090	440.959808
2725.988317	1.521302	0.561090	2044.412598
2725.989335	1.500337	0.561090	3571.755371
2725.990239	0.537125	0.561090	4057.316650
2725.991199	0.088645	0.561090	4142.416016
2725.992245	0.085990	0.561090	4232.361328
2725.993173	0.085880	0.561090	4312.058105
2725.994031	0.085895	0.561090	4385.755859
2725.995096	0.085917	0.561090	4477.257324
2725.996096	0.085935	0.561090	4563.192383
2725.996978	0.085898	0.561090	4638.954590
2725.997968	0.085935	0.561090	4724.030273
2725.999004	0.085913	0.561090	4813.036133
2725.999918	0.085840	0.561090	4891.493652
2727.021599	1.112893	0.554608	566.462585
2727.022611	1.524368	0.554608	2109.122803
2727.023511	1.503402	0.554608	3462.184570
2727.024494	0.594723	0.554608	4046.797119
2727.025543	0.086700	0.554608	4137.746094
2727.026457	0.085887	0.554608	4216.247070
2727.027320	0.085887	0.554608	4290.368164
2727.028404	0.085906	0.554608	4383.490234
2727.029397	0.085774	0.554608	4468.663574
2727.030289	0.085865	0.554608	4545.255371
2727.031273	0.086063	0.554608	4629.941406
2727.032322	0.085873	0.554608	4720.021973
2727.033232	0.085876	0.554608	4798.169434
2727.034091	0.085953	0.554608	4872.003418
2728.044635	1.178240	0.554512	689.270203
2728.045679	1.524899	0.554512	2281.264404
2728.046573	1.499678	0.554512	3621.976074
2728.047508	0.524154	0.554512	4112.060059
2728.048569	0.086422	0.554512	4203.753906
2728.049510	0.085865	0.554512	4284.553223
2728.050370	0.085913	0.554512	4358.438477
2728.051410	0.086001	0.554512	4447.879395
2728.052439	0.086001	0.554512	4536.374512
2728.053313	0.085902	0.554512	4611.453125
2728.054256	0.085913	0.554512	4692.469238
2728.055311	0.086012	0.554512	4783.211914
2728.056250	0.085913	0.554512	4863.884277
2728.057114	0.086008	0.554512	4938.195312
2729.078052	1.108945	0.555555	587.740967
2729.079077	1.524866	0.555555	2150.728516
2729.079979	1.501959	0.555555	3505.495605
2729.080858	0.634464	0.555555	4063.189453
2729.081932	0.087264	0.555555	4156.911621
2729.082862	0.085891	0.555555	4236.790527
2729.083738	0.085924	0.555555	4312.060059
2729.084694	0.086019	0.555555	4394.294434
2729.085712	0.085858	0.555555	4481.698242
2729.086595	0.085961	0.555555	4557.601562
2729.087456	0.085935	0.555555	4631.591797
2729.088512	0.086144	0.555555	4722.559570
2729.089443	0.085946	0.555555	4802.575195
2729.090314	0.085862	0.555555	4877.360840
2730.101180	1.030415	0.554717	439.987244
2730.102223	1.522255	0.554717	2027.698730
2730.103107	1.506577	0.554717	3359.512939
2730.103982	0.816057	0.554717	4073.562988
2730.104929	0.095760	0.554717	4164.248047
2730.105896	0.085792	0.554717	4247.208984
2730.106822	0.085884	0.554717	4326.737305
2730.107698	0.085887	0.554717	4401.974609
2730.108724	0.085935	0.554717	4490.144043
2730.109622	0.085814	0.554717	4567.205078
2730.110494	0.085913	0.554717	4642.121094
2730.111354	0.086016	0.554717	4716.094727
2730.112396	0.085928	0.554717	4805.631348
2730.113278	0.085887	0.554717	4881.384277
2731.133969	1.074624	0.558773	548.058289
2731.135022	1.523331	0.558773	2152.126221
2731.135957	1.500688	0.558773	3555.270020
2731.136824	0.595426	0.558773	4071.504395
2731.137896	0.087045	0.558773	4164.816406
2731.138902	0.085818	0.558773	4251.149414
2731.139783	0.085829	0.558773	4326.764648
2731.140767	0.085983	0.558773	4411.371582
2731.141822	0.085906	0.558773	4502.001953
2731.142722	0.085884	0.558773	4579.297363
2731.143589	0.085851	0.558773	4653.729980
2731.144664	0.085898	0.558773	4746.070801
2731.145667	0.085840	0.558773	4832.167969
2731.146558	0.085800	0.558773	4908.615234
2732.158698	1.078506	0.552357	505.819244
2732.159580	1.518567	0.552357	1845.195312
2732.160551	1.508196	0.552357	3309.653564
2732.161601	0.628312	0.552357	3969.380859
2732.162514	0.088341	0.552357	4050.036133
2732.163378	0.085902	0.552357	4124.255371
2732.164422	0.085950	0.552357	4213.986816
2732.165433	0.085887	0.552357	4300.818848
2732.166322	0.085865	0.552357	4377.153320
2732.167289	0.085972	0.552357	4460.288086
2732.168337	0.085983	0.552357	4550.397949
2732.169266	0.085898	0.552357	4630.197754
2732.170130	0.085979	0.552357	4704.483398
2732.171210	0.085957	0.552357	4797.316895
2733.189822	1.029756	0.556590	437.646240
2733.190851	1.520742	0.556590	2002.489990
2733.191868	1.501948	0.556590	3529.971191
2733.192766	0.593159	0.556590	4062.628174
2733.193699	0.089374	0.556590	4146.013672
2733.194753	0.085876	0.556590	4236.527344
2733.195689	0.085865	0.556590	4316.897461
2733.196553	0.085924	0.556590	4391.135742
2733.197599	0.085869	0.556590	4480.955078
2733.198618	0.085858	0.556590	4568.444336
2733.199496	0.085814	0.556590	4643.789062
2733.200443	0.085858	0.556590	4725.096680
2733.201481	0.085909	0.556590	4814.270508
2733.202406	0.085887	0.556590	4893.716309
2734.213938	1.137876	0.553436	621.280273
2734.214985	1.524694	0.553436	2217.634521
2734.215881	1.500773	0.553436	3562.326904
2734.216754	0.583114	0.553436	4071.385498
2734.217873	0.086565	0.553436	4168.251465
2734.218830	0.085873	0.553436	4250.431641
2734.219697	0.085836	0.553436	4324.851562
2734.220738	0.086016	0.553436	4414.394043
2734.221770	0.085854	0.553436	4502.996094
2734.222667	0.085906	0.553436	4580.053711
2734.223598	0.085990	0.553436	4660.110352
2734.224648	0.085913	0.553436	4750.319336
2734.225586	0.085876	0.553436	4830.871582
2734.226444	0.085898	0.553436	4904.572266
2735.246273	1.025746	0.554205	433.890503
2735.247179	1.514484	0.554205	1806.012573
2735.248258	1.505061	0.554205	3429.973389
2735.249149	0.718704	0.554205	4070.338379
2735.250005	0.091934	0.554205	4149.033691
2735.251048	0.085836	0.554205	4238.561035
2735.252019	0.085898	0.554205	4321.968262
2735.252892	0.085807	0.554205	4396.877441
2735.253759	0.085854	0.554205	4471.313477
2735.254889	0.085946	0.554205	4568.432617
2735.255787	0.085814	0.554205	4645.493652
2735.256651	0.085858	0.554205	4719.675293
2735.257735	0.085968	0.554205	4812.864746
2735.258700	0.085778	0.554205	4895.640137
2736.270272	1.032052	0.554705	439.654175
2736.271134	1.514414	0.554705	1745.078979
2736.272152	1.508218	0.554705	3280.444580
2736.273077	0.822177	0.554705	4040.958008
2736.273955	0.095563	0.554705	4124.862305
2736.274926	0.085825	0.554705	4208.198730
2736.275838	0.085822	0.554705	4286.467773
2736.276752	0.085876	0.554705	4364.958984
2736.277619	0.085869	0.554705	4439.407715
2736.278637	0.085862	0.554705	4526.814941
2736.279552	0.085902	0.554705	4605.415527
2736.280437	0.085851	0.554705	4681.393555
2736.281333	0.085913	0.554705	4758.371582
2736.282287	0.085913	0.554705	4840.332520
2737.301725	1.071790	0.562947	487.664276
2737.302605	1.518230	0.562947	1823.706665
2737.303596	1.506987	0.562947	3317.130859
2737.304672	0.597012	0.562947	3959.515625
2737.305550	0.088143	0.562947	4036.905518
2737.306417	0.085946	0.562947	4111.420898
2737.307512	0.085909	0.562947	4205.491699
2737.308489	0.085836	0.562947	4289.353516
2737.309359	0.085902	0.562947	4364.088379
2737.310404	0.085942	0.562947	4453.897949
2737.311456	0.085811	0.562947	4544.170410
2737.312349	0.085920	0.562947	4620.897461
2737.313279	0.085887	0.562947	4700.772949
2737.314330	0.085909	0.562947	4791.063965
2738.326837	1.139055	0.555660	624.202209
2738.327904	1.524756	0.555660	2251.116699
2738.328811	1.499220	0.555660	3610.909180
2738.329685	0.530673	0.555660	4074.717041
2738.330802	0.086503	0.555660	4171.340332
2738.331743	0.085869	0.555660	4252.143066
2738.332604	0.085865	0.555660	4326.073242
2738.333639	0.085983	0.555660	4415.065430
2738.334674	0.085829	0.555660	4503.898437
2738.335551	0.085873	0.555660	4579.208984
2738.336463	0.085884	0.555660	4657.535156
2738.337530	0.085906	0.555660	4749.196777
2738.338481	0.085884	0.555660	4830.872070
2738.339338	0.085869	0.555660	4904.461914
2739.358430	1.055468	0.554576	473.904968
2739.359296	1.516978	0.554576	1787.607422
2739.360357	1.505453	0.554576	3384.893066
2739.361379	0.563969	0.554576	3961.269043
2739.362248	0.088308	0.554576	4038.008789
2739.363215	0.085854	0.554576	4121.030273
2739.364288	0.085880	0.554576	4213.179687
2739.365207	0.085829	0.554576	4292.056641
2739.366069	0.085931	0.554576	4366.129395
2739.367135	0.085964	0.554576	4457.767578
2739.368132	0.085847	0.554576	4543.357422
2739.369028	0.085902	0.554576	4620.325684
2739.370007	0.086060	0.554576	4704.578125
2739.371063	0.085869	0.554576	4795.255859
2740.383160	1.023765	0.554105	432.028656
2740.384183	1.517776	0.554105	1984.713257
2740.385092	1.505764	0.554105	3353.452881
2740.386020	0.725654	0.554105	4026.860107
2740.386898	0.091853	0.554105	4107.506836
2740.387942	0.085818	0.554105	4197.100586
2740.388829	0.085825	0.554105	4273.227539
2740.389702	0.085836	0.554105	4348.162598
2740.390675	0.085829	0.554105	4431.674316
2740.391645	0.085844	0.554105	4514.942383
2740.392568	0.085913	0.554105	4594.240234
2740.393430	0.085924	0.554105	4668.306641
2740.394457	0.085869	0.554105	4756.494141
2740.395334	0.085829	0.554105	4831.766113
2741.415357	1.025918	0.553102	431.911469
2741.416322	1.514813	0.553102	1893.706299
2741.417372	1.503190	0.553102	3472.055420
2741.418302	0.604471	0.553102	4034.213867
2741.419165	0.089590	0.553102	4111.529785
2741.420228	0.086001	0.553102	4202.948730
2741.421232	0.085898	0.553102	4289.190918
2741.422106	0.085865	0.553102	4364.237305
2741.423096	0.086008	0.553102	4449.385742
2741.424139	0.085909	0.553102	4538.989258
2741.425048	0.085862	0.553102	4617.037598
2741.425904	0.085909	0.553102	4690.576172
2741.426979	0.085997	0.553102	4783.023437
2741.427964	0.085854	0.553102	4867.590332
2742.438846	1.024929	0.561271	434.569977
2742.439862	1.519065	0.561271	1977.939941
2742.440910	1.501670	0.561271	3551.689941
2742.441800	0.585132	0.561271	4072.457275
2742.442713	0.089293	0.561271	4153.981934
2742.443808	0.085887	0.561271	4248.028809
2742.444744	0.085800	0.561271	4328.337402
2742.445616	0.085774	0.561271	4403.132324
2742.446636	0.085994	0.561271	4490.845703
2742.447655	0.085869	0.561271	4578.346191
2742.448548	0.085880	0.561271	4655.037109
2742.449504	0.085840	0.561271	4737.100098
2742.450556	0.085950	0.561271	4827.519043
2742.451484	0.085898	0.561271	4907.232910
2743.472657	1.071808	0.550439	546.622009
2743.473724	1.523525	0.550439	2172.223633
2743.474667	1.499645	0.550439	3586.388672
2743.475534	0.557102	0.550439	4069.396240
2743.476579	0.087001	0.550439	4160.312012
2743.477597	0.085887	0.550439	4247.745605
2743.478485	0.085840	0.550439	4323.971191
2743.479451	0.085924	0.550439	4406.973633
2743.480501	0.085939	0.550439	4497.209473
2743.481431	0.085917	0.550439	4577.111816
2743.482298	0.085953	0.550439	4651.633301
2743.483368	0.086023	0.550439	4743.677734
2743.484361	0.085906	0.550439	4828.981934
2743.485255	0.085898	0.550439	4905.774902
2744.495041	1.029851	0.561799	439.746399
2744.495908	1.515304	0.561799	1753.514893
2744.496961	1.506350	0.561799	3339.701660
2744.497921	0.698767	0.561799	4010.518066
2744.498797	0.090817	0.561799	4090.073486
2744.499730	0.085862	0.561799	4170.182617
2744.500772	0.085884	0.561799	4259.673340
2744.501650	0.085884	0.561799	4335.079102
2744.502511	0.085895	0.561799	4409.034668
2744.503573	0.085909	0.561799	4500.270508
2744.504520	0.085844	0.561799	4581.564453
2744.505389	0.085880	0.561799	4656.194336
2744.506305	0.085887	0.561799	4734.867187
2744.507372	0.085887	0.561799	4826.509277
2745.529417	1.132584	0.559881	639.910095
2745.530470	1.524609	0.559881	2245.323730
2745.531374	1.499326	0.559881	3600.714355
2745.532240	0.543809	0.559881	4071.652588
2745.533348	0.086521	0.559881	4167.518066
2745.534311	0.085800	0.559881	4250.143066
2745.535173	0.085913	0.559881	4324.200195
2745.536257	0.085953	0.559881	4417.373535
2745.537288	0.085836	0.559881	4505.870605
2745.538169	0.085822	0.559881	4581.479492
2745.539083	0.085942	0.559881	4660.030762
2745.540147	0.085902	0.559881	4751.430664
2745.541099	0.085869	0.559881	4833.178223
2745.541965	0.085814	0.559881	4907.493164
2746.550058	1.120745	0.567535	582.787170
2746.551009	1.523884	0.567535	2032.001221
2746.551882	1.506515	0.567535	3347.188721
2746.552956	0.570271	0.567535	3959.659668
2746.553970	0.086678	0.567535	4047.551514
2746.554843	0.085796	0.567535	4122.451172
2746.555803	0.085920	0.567535	4204.934570
2746.556863	0.085942	0.567535	4296.033691
2746.557782	0.085917	0.567535	4374.991211
2746.558649	0.085873	0.567535	4449.442871
2746.559715	0.085979	0.567535	4541.096680
2746.560719	0.085891	0.567535	4627.331543
2746.561614	0.085887	0.567535	4704.200684
2746.562589	0.085986	0.567535	4788.037109
2747.587079	1.095260	0.558234	547.630005
2747.587960	1.520728	0.558234	1887.390991
2747.588897	1.507705	0.558234	3300.110596
2747.589967	0.604281	0.558234	3946.691406
2747.590908	0.087634	0.558234	4029.155273
2747.591765	0.085891	0.558234	4102.764160
2747.592812	0.085968	0.558234	4192.772461
2747.593839	0.085928	0.558234	4281.020020
2747.594714	0.085789	0.558234	4356.084961
2747.595658	0.085935	0.558234	4437.207520
2747.596717	0.085917	0.558234	4528.193359
2747.597641	0.085873	0.558234	4607.540039
2747.598509	0.085902	0.558234	4682.103027
2747.599555	0.085924	0.558234	4771.979492
2748.606990	1.099980	0.566117	543.390381
2748.607869	1.520398	0.566117	1879.820190
2748.608737	1.510510	0.566117	3190.942871
2748.609799	0.708999	0.566117	3943.899902
2748.610751	0.088993	0.566117	4028.621094
2748.611626	0.085796	0.566117	4103.692383
2748.612527	0.085792	0.566117	4180.991211
2748.613616	0.085876	0.566117	4274.510742
2748.614494	0.085781	0.566117	4349.826660
2748.615362	0.085825	0.566117	4424.322754
2748.616375	0.085854	0.566117	4511.293457
2748.617349	0.085811	0.566117	4594.873047
2748.618221	0.085763	0.566117	4669.658203
2748.619085	0.085873	0.566117	4743.852539
2749.643758	1.086742	0.565344	502.074768
2749.644638	1.518523	0.565344	1838.375000
2749.645513	1.511411	0.565344	3160.859863
2749.646536	0.803221	0.565344	3982.555420
2749.647456	0.092186	0.565344	4067.366699
2749.648364	0.085807	0.565344	4145.279297
2749.649237	0.085924	0.565344	4220.291016
2749.650269	0.085818	0.565344	4308.854980
2749.651161	0.085730	0.565344	4385.326172
2749.652036	0.085803	0.565344	4460.403809
2749.652981	0.085844	0.565344	4541.525879
2749.653971	0.085770	0.565344	4626.438477
2749.654896	0.085822	0.565344	4705.823242
2749.655759	0.085833	0.565344	4779.896484
2750.661557	1.027346	0.570444	431.485413
2750.662640	1.522581	0.570444	2080.440186
2750.663646	1.500033	0.570444	3589.473145
2750.664545	0.539425	0.570444	4074.416260
2750.665530	0.088385	0.570444	4161.475586
2750.666569	0.085920	0.570444	4250.747070
2750.667472	0.085876	0.570444	4328.293457
2750.668328	0.085851	0.570444	4401.781738
2750.669431	0.085972	0.570444	4496.608398
2750.670424	0.085836	0.570444	4581.843750
2750.671304	0.085873	0.570444	4657.411621
2750.672308	0.085986	0.570444	4743.741699
2750.673364	0.085924	0.570444	4834.477539
2750.674242	0.085851	0.570444	4909.854492
2751.701713	1.057463	0.558367	473.743561
2751.702813	1.523419	0.558367	2149.504639
2751.703774	1.500190	0.558367	3591.187500
2751.704648	0.568019	0.558367	4087.635986
2751.705677	0.087290	0.558367	4177.457520
2751.706712	0.085844	0.558367	4266.305664
2751.707605	0.085865	0.558367	4342.983398
2751.708542	0.085990	0.558367	4423.556152
2751.709589	0.085972	0.558367	4513.568359
2751.710537	0.085873	0.558367	4594.975586
2751.711403	0.085957	0.558367	4669.414551
2751.712451	0.086027	0.558367	4759.570312
2751.713462	0.085898	0.558367	4846.413574
2751.714350	0.085836	0.558367	4922.636230
2752.717765	1.034938	0.569730	445.023224
2752.718780	1.518497	0.569730	1986.297974
2752.719825	1.501692	0.569730	3555.565918
2752.720708	0.583293	0.569730	4070.614014
2752.721595	0.089081	0.569730	4149.628906
2752.722683	0.086001	0.569730	4243.197754
2752.723646	0.085880	0.569730	4325.900391
2752.724518	0.085836	0.569730	4400.749512
2752.725534	0.086100	0.569730	4488.227051
2752.726569	0.085964	0.569730	4577.200195
2752.727460	0.085803	0.569730	4653.650879
2752.728393	0.085902	0.569730	4733.797363
2752.729454	0.085924	0.569730	4824.962891
2752.730394	0.085825	0.569730	4905.638672
2753.758698	1.054358	0.552477	497.656921
2753.759774	1.523793	0.552477	2137.257812
2753.760665	1.503424	0.552477	3476.808594
2753.761529	0.694790	0.552477	4077.107178
2753.762550	0.088619	0.552477	4167.587402
2753.763515	0.085909	0.552477	4250.490234
2753.764390	0.085778	0.552477	4325.545410
2753.765268	0.085942	0.552477	4401.002930
2753.766381	0.085950	0.552477	4496.665039
2753.767279	0.085862	0.552477	4573.769043
2753.768142	0.085792	0.552477	4647.807617
2753.769196	0.085931	0.552477	4738.379395
2753.770165	0.085913	0.552477	4821.629395
2753.771049	0.085898	0.552477	4897.563477
2754.773256	1.125443	0.565481	557.094360
2754.774150	1.520922	0.565481	1916.798218
2754.775075	1.507859	0.565481	3311.567627
2754.775951	0.834595	0.565481	4042.672607
2754.776952	0.090839	0.565481	4133.602051
2754.777875	0.085785	0.565481	4212.781738
2754.778739	0.085862	0.565481	4286.966309
2754.779763	0.085876	0.565481	4374.903809
2754.780652	0.085814	0.565481	4451.192871
2754.781574	0.085822	0.565481	4530.320312
2754.782441	0.085876	0.565481	4604.775391
2754.783411	0.085833	0.565481	4688.032715
2754.784346	0.085807	0.565481	4768.262207
2754.785239	0.085917	0.565481	4844.985840
2755.814335	1.032400	0.556131	439.802368
2755.815395	1.520922	0.556131	2051.979248
2755.816414	1.500384	0.556131	3580.871094
2755.817303	0.555970	0.556131	4075.128906
2755.818266	0.088583	0.556131	4160.434082
2755.819339	0.085924	0.556131	4252.630859
2755.820240	0.085847	0.556131	4329.979004
2755.821106	0.085807	0.556131	4404.287598
2755.822176	0.085968	0.556131	4496.273437
2755.823168	0.085767	0.556131	4581.354004
2755.824063	0.085873	0.556131	4658.209961
2755.825041	0.085946	0.556131	4742.265137
2755.826098	0.085898	0.556131	4833.059570
2755.827003	0.085792	0.556131	4910.701660
2756.828944	1.110366	0.555136	557.403870
2756.829895	1.523437	0.555136	2006.192871
2756.830764	1.507321	0.555136	3316.054443
2756.831786	0.643103	0.555136	3973.305664
2756.832835	0.087177	0.555136	4064.753906
2756.833729	0.085789	0.555136	4141.448730
2756.834661	0.085833	0.555136	4221.444824
2756.835724	0.085869	0.555136	4312.723633
2756.836668	0.085865	0.555136	4393.780762
2756.837530	0.085803	0.555136	4467.743164
2756.838576	0.085950	0.555136	4557.646484
2756.839603	0.085858	0.555136	4645.822754
2756.840498	0.085800	0.555136	4722.613281
2756.841466	0.085895	0.555136	4805.759277
2757.871393	1.100640	0.539526	581.137756
2757.872463	1.524478	0.539526	2212.328857
2757.873384	1.499513	0.539526	3593.380371
2757.874253	0.550466	0.539526	4071.735596
2757.875343	0.086667	0.539526	4166.203125
2757.876330	0.085928	0.539526	4251.013672
2757.877225	0.085869	0.539526	4327.866699
2757.878226	0.085931	0.539526	4413.883789
2757.879269	0.085939	0.539526	4503.518066
2757.880162	0.085917	0.539526	4580.241699
2757.881021	0.085909	0.539526	4654.038086
2757.882121	0.086045	0.539526	4748.687500
2757.883077	0.085961	0.539526	4830.865723
2757.883934	0.085891	0.539526	4904.474609
2758.885387	1.097249	0.554689	550.818787
2758.886344	1.523522	0.554689	2008.829102
2758.887208	1.507614	0.554689	3311.407227
2758.888264	0.606493	0.554689	3951.863770
2758.889297	0.086920	0.554689	4041.652344
2758.890192	0.085836	0.554689	4118.475586
2758.891117	0.085898	0.554689	4197.931641
2758.892164	0.085920	0.554689	4287.890137
2758.893105	0.085789	0.554689	4368.617187
2758.893968	0.085858	0.554689	4442.712891
2758.895012	0.086093	0.554689	4532.593262
2758.896038	0.085946	0.554689	4620.773926
2758.896926	0.085895	0.554689	4697.048340
2758.897899	0.085884	0.554689	4780.613281
2759.928052	1.057764	0.534056	509.842102
2759.929131	1.524251	0.534056	2154.508301
2759.930034	1.501952	0.534056	3510.770752
2759.930904	0.648461	0.534056	4074.931641
2759.931956	0.087986	0.534056	4167.492676
2759.932925	0.085800	0.534056	4250.632324
2759.933800	0.085833	0.534056	4325.735840
2759.934699	0.085851	0.534056	4402.915527
2759.935777	0.085909	0.534056	4495.525879
2759.936657	0.085811	0.534056	4571.039062
2759.937512	0.085836	0.534056	4644.429199
2759.938546	0.085869	0.534056	4733.217773
2759.939522	0.085836	0.534056	4816.993652
2759.940394	0.085737	0.534056	4891.756348
2760.941246	1.025482	0.547397	433.778961
2760.942288	1.520292	0.547397	2017.922974
2760.943177	1.506024	0.547397	3356.778320
2760.944068	0.788745	0.547397	4059.550293
2760.944924	0.094973	0.547397	4140.847168
2760.946008	0.085781	0.547397	4233.833984
2760.946898	0.085800	0.547397	4310.195801
2760.947774	0.085847	0.547397	4385.397949
2760.948779	0.085917	0.547397	4471.744141
2760.949710	0.085854	0.547397	4551.674805
2760.950635	0.085876	0.547397	4631.110352
2760.951492	0.085909	0.547397	4704.734863
2760.952527	0.085898	0.547397	4793.639648
2760.953408	0.085748	0.547397	4869.184082
2761.984291	1.080645	0.528907	571.661011
2761.985343	1.524207	0.528907	2175.126221
2761.986270	1.500293	0.528907	3565.897705
2761.987135	0.576277	0.528907	4064.377197
2761.988194	0.087004	0.528907	4156.514648
2761.989196	0.085928	0.528907	4242.614258
2761.990090	0.085902	0.528907	4319.410645
2761.991063	0.086038	0.528907	4403.125000
2761.992115	0.085983	0.528907	4493.578613
2761.993027	0.085902	0.528907	4571.921387
2761.993890	0.085891	0.528907	4646.045410
2761.994986	0.086005	0.528907	4740.306641
2761.995957	0.085884	0.528907	4823.699707
2761.996841	0.085818	0.528907	4899.562500
2762.997815	1.152920	0.553359	619.118042
2762.998870	1.524752	0.553359	2227.731445
2762.999763	1.500725	0.553359	3567.878906
2763.000698	0.562452	0.553359	4093.771973
2763.001759	0.086576	0.553359	4185.628906
2763.002701	0.085924	0.553359	4266.569336
2763.003565	0.085902	0.553359	4340.788574
2763.004620	0.086115	0.553359	4431.639160
2763.005642	0.085865	0.553359	4519.393555
2763.006532	0.085880	0.553359	4595.826660
2763.007477	0.086001	0.553359	4677.097656
2763.008520	0.085913	0.553359	4766.705078
2763.009456	0.085942	0.553359	4847.146973
2763.010321	0.085847	0.553359	4921.404785
2764.039614	1.030521	0.531651	436.941010
2764.040521	1.515004	0.531651	1811.049438
2764.041623	1.503179	0.531651	3467.552246
2764.042568	0.586571	0.531651	4021.861816
2764.043437	0.088942	0.531651	4099.152344
2764.044473	0.085968	0.531651	4188.215332
2764.045495	0.085920	0.531651	4276.025879
2764.046395	0.085876	0.531651	4353.314453
2764.047330	0.085997	0.531651	4433.722168
2764.048378	0.085847	0.531651	4523.689941
2764.049310	0.085873	0.531651	4603.723633
2764.050171	0.085891	0.531651	4677.675781
2764.051222	0.085990	0.531651	4768.051270
2764.052235	0.085946	0.531651	4855.114746
2765.053889	1.040687	0.552087	444.373444
2765.054961	1.522119	0.552087	2076.085205
2765.055906	1.502640	0.552087	3496.080322
2765.056794	0.654606	0.552087	4077.370117
2765.057765	0.090396	0.552087	4165.144043
2765.058776	0.085789	0.552087	4251.876465
2765.059657	0.085730	0.552087	4327.404785
2765.060512	0.085917	0.552087	4400.863770
2765.061557	0.085902	0.552087	4490.631348
2765.062489	0.085778	0.552087	4570.576172
2765.063370	0.085818	0.552087	4646.181641
2765.064303	0.085950	0.552087	4726.372559
2765.065355	0.085895	0.552087	4816.733887
2765.066248	0.085796	0.552087	4893.349609
2766.096600	1.048700	0.526426	463.525391
2766.097481	1.517648	0.526426	1800.572998
2766.098421	1.510767	0.526426	3220.693604
2766.099363	0.837682	0.526426	4009.790039
2766.100274	0.093977	0.526426	4095.403076
2766.101151	0.085789	0.526426	4170.639648
2766.102173	0.085862	0.526426	4258.390625
2766.103071	0.085825	0.526426	4335.461426
2766.103993	0.085789	0.526426	4414.558594
2766.104852	0.085833	0.526426	4488.288574
2766.105840	0.085814	0.526426	4573.073242
2766.106762	0.085884	0.526426	4652.258301
2766.107626	0.085814	0.526426	4726.401855
2766.108660	0.085876	0.526426	4815.198242
2767.110070	1.041042	0.552336	439.319916
2767.111187	1.522474	0.552336	2139.923828
2767.112165	1.500103	0.552336	3607.023926
2767.113031	0.569835	0.552336	4100.500977
2767.114087	0.087155	0.552336	4192.536133
2767.115123	0.085865	0.552336	4281.492676
2767.115994	0.085829	0.552336	4356.249512
2767.116906	0.085917	0.552336	4434.605469
2767.117983	0.085814	0.552336	4527.027344
2767.118934	0.085796	0.552336	4608.619141
2767.119799	0.085818	0.552336	4682.851562
2767.120818	0.085920	0.552336	4770.404297
2767.121844	0.085840	0.552336	4858.476074
2767.122734	0.085902	0.552336	4934.928711
2768.153928	1.163130	0.519066	660.657776
2768.154982	1.525064	0.519066	2268.074707
2768.155873	1.499901	0.519066	3604.486816
2768.156789	0.539952	0.519066	4099.083008
2768.157872	0.086276	0.519066	4192.519531
2768.158823	0.085840	0.519066	4274.153320
2768.159691	0.085767	0.519066	4348.598633
2768.160730	0.085924	0.519066	4437.873535
2768.161769	0.085880	0.519066	4527.103027
2768.162663	0.085840	0.519066	4603.843750
2768.163618	0.085898	0.519066	4685.876953
2768.164666	0.085972	0.519066	4775.975098
2768.165608	0.085800	0.519066	4856.798340
2768.166468	0.085803	0.519066	4930.588867
2769.166028	1.044265	0.562121	451.122559
2769.167021	1.517391	0.562121	1957.892090
2769.168064	1.501641	0.562121	3524.103271
2769.168976	0.570286	0.562121	4044.203613
2769.169836	0.088916	0.562121	4120.671387
2769.170919	0.085884	0.562121	4213.683594
2769.171897	0.085719	0.562121	4297.516602
2769.172775	0.085781	0.562121	4372.832520
2769.173768	0.085909	0.562121	4458.140625
2769.174823	0.085913	0.562121	4548.778809
2769.175694	0.085792	0.562121	4623.503906
2769.176560	0.085862	0.562121	4697.860352
2769.177683	0.085814	0.562121	4794.229492
2769.178650	0.085792	0.562121	4877.190430
2770.209244	1.058969	0.530797	486.066559
2770.210135	1.519208	0.530797	1839.680664
2770.211121	1.507328	0.530797	3325.906006
2770.212075	0.712386	0.530797	4005.522705
2770.212999	0.090538	0.530797	4089.180176
2770.213864	0.085884	0.530797	4163.469727
2770.214896	0.085931	0.530797	4252.150879
2770.215775	0.085770	0.530797	4327.542969
2770.216640	0.085928	0.530797	4401.870605
2770.217590	0.085917	0.530797	4483.491699
2770.218559	0.085851	0.530797	4566.681152
2770.219469	0.085785	0.530797	4644.745605
2770.220344	0.085792	0.530797	4719.813965
2770.221372	0.085825	0.530797	4808.042480
2771.222468	1.033953	0.567628	442.531769
2771.223462	1.516776	0.567628	1950.207153
2771.224514	1.501820	0.567628	3530.121826
2771.225426	0.571381	0.567628	4051.220947
2771.226281	0.088997	0.567628	4127.312988
2771.227382	0.085913	0.567628	4221.903320
2771.228379	0.085796	0.567628	4307.441895
2771.229257	0.085829	0.567628	4382.799805
2771.230238	0.085994	0.567628	4467.159668
2771.231285	0.085811	0.567628	4557.003418
2771.232177	0.085844	0.567628	4633.575684
2771.233046	0.085876	0.567628	4708.202148
2771.234159	0.085909	0.567628	4803.819336
2771.235126	0.085789	0.567628	4886.776855
2772.265662	1.029031	0.527578	437.338043
2772.266668	1.516315	0.527578	1962.750488
2772.267723	1.501311	0.527578	3546.633789
2772.268640	0.542673	0.527578	4044.265137
2772.269496	0.088561	0.527578	4120.073242
2772.270586	0.085990	0.527578	4213.802246
2772.271570	0.085825	0.527578	4298.254395
2772.272447	0.085833	0.527578	4373.529297
2772.273457	0.085854	0.527578	4460.242187
2772.274495	0.085818	0.527578	4549.321289
2772.275381	0.085822	0.527578	4625.359375
2772.276251	0.085833	0.527578	4700.033691
2772.277371	0.085942	0.527578	4796.289062
2772.278337	0.085800	0.527578	4879.171387
2773.279165	1.024867	0.555970	433.518707
2773.280221	1.520541	0.555970	2039.209717
2773.281257	1.500048	0.555970	3593.259033
2773.282150	0.535206	0.555970	4071.198242
2773.283129	0.088392	0.555970	4157.734375
2773.284173	0.085851	0.555970	4247.362793
2773.285097	0.085811	0.555970	4326.651855
2773.285952	0.085902	0.555970	4400.098145
2773.286993	0.085920	0.555970	4489.541504
2773.288004	0.085690	0.555970	4576.173828
2773.288895	0.085811	0.555970	4652.630859
2773.289860	0.085909	0.555970	4735.533203
2773.290914	0.085924	0.555970	4826.097168
2773.291831	0.085803	0.555970	4904.778809
2774.322617	1.024167	0.527635	431.174469
2774.323614	1.516567	0.527635	1943.192139
2774.324632	1.502853	0.527635	3473.096191
2774.325532	0.640950	0.527635	4049.950928
2774.326390	0.090352	0.527635	4127.472656
2774.327480	0.085807	0.527635	4221.001953
2774.328391	0.085730	0.527635	4299.102051
2774.329269	0.085873	0.527635	4374.498535
2774.330256	0.085884	0.527635	4459.265625
2774.331262	0.085781	0.527635	4545.561523
2774.332148	0.085723	0.527635	4621.511719
2774.333003	0.085778	0.527635	4694.851562
2774.334054	0.085865	0.527635	4785.096191
2774.334985	0.085785	0.527635	4864.961914
2775.334869	1.052699	0.564260	467.398346
2775.335735	1.516366	0.564260	1780.571289
2775.336792	1.505925	0.564260	3372.334473
2775.337814	0.579408	0.564260	3964.489502
2775.338697	0.088521	0.564260	4042.653076
2775.339602	0.085734	0.564260	4120.242187
2775.340475	0.085785	0.564260	4195.132324
2775.341452	0.085811	0.564260	4278.969238
2775.342379	0.085858	0.564260	4358.559570
2775.343254	0.085770	0.564260	4433.608398
2775.344306	0.085822	0.564260	4523.892578
2775.345196	0.085693	0.564260	4600.159668
2775.346116	0.085884	0.564260	4679.172852
2775.346982	0.085833	0.564260	4753.503906
2776.380188	1.117189	0.529121	569.766235
2776.381183	1.524906	0.529121	2087.047852
2776.382079	1.504321	0.529121	3434.919922
2776.383092	0.565800	0.529121	4008.074951
2776.384144	0.086660	0.529121	4099.241211
2776.385023	0.085807	0.529121	4174.665527
2776.385903	0.085884	0.529121	4250.243164
2776.387006	0.086027	0.529121	4345.130371
2776.387962	0.085822	0.529121	4427.175781
2776.388824	0.085898	0.529121	4501.220215
2776.389863	0.085953	0.529121	4590.525879
2776.390893	0.085836	0.529121	4678.937012
2776.391767	0.085833	0.529121	4753.954590
2776.392687	0.085939	0.529121	4833.018066
2777.391801	1.025131	0.565255	430.554871
2777.392779	1.515879	0.565255	1913.084473
2777.393832	1.502560	0.565255	3495.279785
2777.394758	0.584469	0.565255	4036.498047
2777.395620	0.089231	0.565255	4113.415039
2777.396703	0.085935	0.565255	4206.482910
2777.397690	0.085792	0.565255	4291.159668
2777.398571	0.085811	0.565255	4366.758789
2777.399570	0.085994	0.565255	4452.666504
2777.400615	0.085862	0.565255	4542.392090
2777.401511	0.085884	0.565255	4619.343750
2777.402369	0.085939	0.565255	4693.079102
2777.403451	0.086008	0.565255	4786.140137
2777.404398	0.085734	0.565255	4867.330078
2778.434760	1.048370	0.536316	457.089478
2778.435626	1.515718	0.536316	1769.701050
2778.436732	1.503955	0.536316	3433.075195
2778.437711	0.581763	0.536316	4002.620850
2778.438568	0.088905	0.536316	4078.812500
2778.439669	0.086012	0.536316	4173.511719
2778.440682	0.085854	0.536316	4260.482422
2778.441566	0.085898	0.536316	4336.416504
2778.442492	0.085807	0.536316	4415.873535
2778.443552	0.085836	0.536316	4506.859863
2778.444482	0.085840	0.536316	4586.690918
2778.445344	0.085770	0.536316	4660.625000
2778.446405	0.085946	0.536316	4751.813965
2778.447438	0.085800	0.536316	4840.444824
2779.448637	1.160684	0.557388	616.322998
2779.449545	1.523386	0.557388	1999.557739
2779.462109	0.085770	0.557388	3077.175293
2779.464853	0.085836	0.557388	3312.709717
2779.466921	0.085723	0.557388	3489.984131
2779.467864	0.085752	0.557388	3570.848145
2779.468748	0.085844	0.557388	3646.733887
2779.469730	0.085869	0.557388	3731.057373
2779.470742	0.085745	0.557388	3817.831055
2779.471633	0.085844	0.557388	3894.317627
2779.472497	0.085811	0.557388	3968.458008
2779.473571	0.085887	0.557388	4060.701172
2779.474492	0.085756	0.557388	4139.682129
