time (s)	coil I (A)	last det (V)	int current (uC)
4846.830599	1.112739	0.221732	525.212952
4846.831485	1.522584	0.221732	1874.222656
4846.832470	1.508163	0.221732	3359.762939
4846.833534	0.559871	0.221732	3955.465332
4846.834457	0.087360	0.221732	4036.098145
4846.835314	0.085961	0.221732	4109.766602
4846.836398	0.086049	0.221732	4203.043457
4846.837385	0.085975	0.221732	4287.900879
4846.838279	0.085906	0.221732	4364.700684
4846.839259	0.086038	0.221732	4449.017578
4846.840302	0.086012	0.221732	4538.728027
4846.841204	0.085920	0.221732	4616.228027
4846.842062	0.086012	0.221732	4690.026367
4846.843149	0.086104	0.221732	4783.621094
4847.874497	1.032012	0.205317	435.508972
4847.875378	1.517069	0.205317	1772.046875
4847.876483	1.505548	0.205317	3435.677490
4847.877445	0.601146	0.205317	4013.980225
4847.878314	0.089136	0.205317	4091.439209
4847.879337	0.086027	0.205317	4179.444336
4847.880367	0.085946	0.205317	4267.968750
4847.881265	0.085909	0.205317	4345.115234
4847.882186	0.085972	0.205317	4424.294922
4847.883250	0.085961	0.205317	4515.757324
4847.884185	0.085898	0.205317	4596.072266
4847.885050	0.085869	0.205317	4670.349121
4847.886113	0.085990	0.205317	4761.756348
4847.887129	0.085975	0.205317	4849.107422
4848.887239	1.049044	0.221881	456.334198
4848.888130	1.519219	0.221881	1809.958130
4848.888998	1.514586	0.221881	3124.619141
4848.890122	0.701041	0.221881	3912.589600
4848.891025	0.089615	0.221881	3993.512451
4848.891904	0.085913	0.221881	4069.030029
4848.892760	0.085990	0.221881	4142.637695
4848.893821	0.085822	0.221881	4233.694336
4848.894703	0.085902	0.221881	4309.459961
4848.895568	0.085986	0.221881	4383.837891
4848.896536	0.085939	0.221881	4467.026367
4848.897472	0.085902	0.221881	4547.430664
4848.898382	0.085924	0.221881	4625.621582
4848.899259	0.085986	0.221881	4701.031738
4849.930706	1.049553	0.204370	464.952087
4849.931577	1.518475	0.204370	1787.544189
4849.932650	1.506823	0.204370	3404.364746
4849.933666	0.556311	0.204370	3969.576660
4849.934536	0.088546	0.204370	4046.611816
4849.935531	0.085942	0.204370	4132.124512
4849.936584	0.086060	0.204370	4222.745117
4849.937488	0.085994	0.204370	4300.483398
4849.938343	0.085953	0.204370	4373.973633
4849.939400	0.086104	0.204370	4464.984863
4849.940402	0.085950	0.204370	4551.106445
4849.941292	0.085917	0.204370	4627.572266
4849.942259	0.085942	0.204370	4710.678711
4849.943309	0.086045	0.204370	4801.025879
4850.942993	1.107587	0.220580	559.331238
4850.943920	1.524708	0.220580	1972.735840
4850.944786	1.509774	0.220580	3280.200195
4850.945857	0.617377	0.220580	3941.410645
4850.946869	0.087023	0.220580	4029.477539
4850.947757	0.085906	0.220580	4105.761719
4850.948714	0.086038	0.220580	4188.099609
4850.949774	0.085961	0.220580	4279.217773
4850.950693	0.085924	0.220580	4358.182129
4850.951554	0.085994	0.220580	4432.222656
4850.952624	0.086063	0.220580	4524.310547
4850.953608	0.085869	0.220580	4608.805664
4850.954489	0.085913	0.220580	4684.495117
4850.955477	0.086034	0.220580	4769.496582
4851.987403	1.044950	0.201824	454.553192
4851.988269	1.517311	0.201824	1768.544312
4851.989399	1.504973	0.201824	3469.164062
4851.990368	0.563793	0.201824	4015.479248
4851.991228	0.088861	0.201824	4091.899902
4851.992267	0.086049	0.201824	4181.304199
4851.993292	0.085994	0.201824	4269.447754
4851.994174	0.085964	0.201824	4345.268555
4851.995101	0.086071	0.201824	4425.056152
4851.996170	0.086038	0.201824	4517.030273
4851.997103	0.085939	0.201824	4597.210937
4851.997964	0.086008	0.201824	4671.264160
4851.999000	0.086034	0.201824	4760.395508
4852.000031	0.085975	0.201824	4849.036133
4852.998070	1.036725	0.220221	435.424408
4852.999159	1.524452	0.220221	2095.552490
4853.000153	1.501769	0.220221	3588.310547
4853.001057	0.569670	0.220221	4103.292480
4853.002076	0.088290	0.220221	4193.259766
4853.003118	0.086089	0.220221	4282.964355
4853.003997	0.085994	0.220221	4358.552734
4853.004873	0.086005	0.220221	4433.892578
4853.005946	0.086041	0.220221	4526.214844
4853.006894	0.085968	0.220221	4607.712402
4853.007756	0.086049	0.220221	4681.886230
4853.008793	0.086078	0.220221	4771.148926
4853.009837	0.086052	0.220221	4860.987305
4853.010705	0.086056	0.220221	4935.683594
4854.045769	1.149287	0.207041	643.600769
4854.046741	1.526700	0.207041	2127.553711
4854.047646	1.504230	0.207041	3488.881836
4854.048527	0.640031	0.207041	4052.748779
4854.049635	0.087023	0.207041	4149.169922
4854.050543	0.085917	0.207041	4227.182129
4854.051407	0.086008	0.207041	4301.493164
4854.052466	0.086045	0.207041	4392.614746
4854.053438	0.085961	0.207041	4476.168457
4854.054313	0.085990	0.207041	4551.409668
4854.055176	0.085975	0.207041	4625.606445
4854.056288	0.086038	0.207041	4721.280273
4854.057192	0.085975	0.207041	4799.001953
4854.058052	0.085939	0.207041	4872.909180
4855.052822	1.074730	0.220584	555.635559
4855.053729	1.523969	0.220584	1937.875000
4855.054656	1.508375	0.220584	3336.138672
4855.055528	0.796245	0.220584	4030.464355
4855.056565	0.089436	0.220584	4123.209473
4855.057446	0.085920	0.220584	4198.905273
4855.058345	0.085983	0.220584	4276.203613
4855.059221	0.085983	0.220584	4351.524414
4855.060201	0.086012	0.220584	4435.815918
4855.061121	0.085909	0.220584	4514.852539
4855.061997	0.085986	0.220584	4590.176758
4855.063012	0.085946	0.220584	4677.412109
4855.063906	0.085876	0.220584	4754.185547
4855.064826	0.085942	0.220584	4833.252441
4856.102907	1.092378	0.209542	531.988037
4856.103784	1.521790	0.209542	1866.597412
4856.104728	1.510144	0.209542	3292.173340
4856.105792	0.620435	0.209542	3952.315674
4856.106728	0.088000	0.209542	4034.684082
4856.107590	0.085924	0.209542	4108.750488
4856.108637	0.086136	0.209542	4198.935547
4856.109635	0.085953	0.209542	4284.716797
4856.110521	0.085920	0.209542	4360.842285
4856.111491	0.086078	0.209542	4444.337891
4856.112541	0.086030	0.209542	4534.669922
4856.113461	0.086016	0.209542	4613.804199
4856.114315	0.086012	0.209542	4687.258301
4856.115357	0.086125	0.209542	4777.000977
4857.107385	1.024717	0.223617	432.430450
4857.108422	1.522039	0.223617	2010.784424
4857.109465	1.502432	0.223617	3577.820557
4857.110361	0.543948	0.223617	4065.197754
4857.111304	0.088872	0.223617	4149.003906
4857.112350	0.085990	0.223617	4238.949219
4857.113286	0.085990	0.223617	4319.436035
4857.114145	0.086008	0.223617	4393.317383
4857.115195	0.086100	0.223617	4483.722168
4857.116209	0.085924	0.223617	4570.849121
4857.117088	0.086012	0.223617	4646.453613
4857.118050	0.086038	0.223617	4729.221680
4857.119091	0.086082	0.223617	4818.832520
4857.120013	0.085990	0.223617	4898.115234
4858.159567	1.057416	0.209337	468.435181
4858.160451	1.519471	0.209337	1811.647949
4858.161440	1.509613	0.209337	3304.655273
4858.162511	0.608170	0.209337	3956.005371
4858.163416	0.088118	0.209337	4035.751953
4858.164278	0.085942	0.209337	4109.834473
4858.165371	0.086038	0.209337	4203.873535
4858.166337	0.085957	0.209337	4286.908203
4858.167202	0.085986	0.209337	4361.286133
4858.168205	0.086052	0.209337	4447.596680
4858.169260	0.086016	0.209337	4538.343262
4858.170135	0.085928	0.209337	4613.530273
4858.170998	0.086060	0.209337	4687.799805
4858.172099	0.086041	0.209337	4782.531250
4859.163581	1.027947	0.218811	434.821503
4859.164569	1.517490	0.218811	1934.101929
4859.165616	1.503867	0.218811	3508.650879
4859.166540	0.585509	0.218811	4049.661133
4859.167398	0.089158	0.218811	4126.158203
4859.168461	0.085994	0.218811	4217.569336
4859.169462	0.085972	0.218811	4303.626953
4859.170349	0.085913	0.218811	4379.832031
4859.171321	0.086093	0.218811	4463.514160
4859.172377	0.086008	0.218811	4554.338867
4859.173286	0.085869	0.218811	4632.394043
4859.174147	0.085994	0.218811	4706.434570
4859.175243	0.085997	0.218811	4800.687500
4859.176205	0.085920	0.218811	4883.342773
4860.216775	1.035172	0.205442	444.088837
4860.217639	1.517018	0.205442	1754.792236
4860.218722	1.507427	0.205442	3387.335449
4860.219658	0.690699	0.205442	4033.830078
4860.220527	0.090828	0.205442	4112.759277
4860.221477	0.085869	0.205442	4194.334961
4860.222511	0.085957	0.205442	4283.214355
4860.223404	0.085953	0.205442	4359.970703
4860.224267	0.085913	0.205442	4434.113770
4860.225319	0.086107	0.205442	4524.698730
4860.226269	0.085895	0.205442	4606.298828
4860.227144	0.085913	0.205442	4681.472656
4860.228070	0.086005	0.205442	4761.112793
4860.229133	0.086027	0.205442	4852.559082
4861.217736	1.045020	0.223787	454.583496
4861.218602	1.517417	0.223787	1768.666626
4861.219598	1.510159	0.223787	3272.784668
4861.220523	0.826813	0.223787	4037.586426
4861.221389	0.096746	0.223787	4121.368164
4861.222432	0.085822	0.223787	4210.879883
4861.223313	0.085928	0.223787	4286.582031
4861.224176	0.085906	0.223787	4360.718750
4861.225108	0.086005	0.223787	4440.875000
4861.226087	0.085836	0.223787	4524.908691
4861.227002	0.085935	0.223787	4603.539062
4861.227884	0.085876	0.223787	4679.282227
4861.228913	0.085924	0.223787	4767.698242
4861.229820	0.085833	0.223787	4845.548340
4862.272968	1.049484	0.204898	457.574860
4862.273832	1.517311	0.204898	1768.531250
4862.274948	1.505369	0.204898	3448.522461
4862.275908	0.575951	0.204898	4001.435303
4862.276788	0.088751	0.204898	4079.536377
4862.277795	0.086100	0.204898	4166.238770
4862.278845	0.086085	0.204898	4256.628418
4862.279730	0.085891	0.204898	4332.642090
4862.280609	0.086096	0.204898	4408.320801
4862.281692	0.086129	0.204898	4501.598633
4862.282640	0.086008	0.204898	4583.134277
4862.283498	0.086012	0.204898	4656.932617
4862.284562	0.086096	0.204898	4748.539062
4862.285603	0.085939	0.204898	4838.001465
4863.275020	1.097567	0.214010	545.490845
4863.275973	1.524855	0.214010	1998.677368
4863.276838	1.509020	0.214010	3303.979492
4863.277872	0.637017	0.214010	3962.654785
4863.278893	0.087352	0.214010	4051.841553
4863.279780	0.085986	0.214010	4128.111328
4863.280718	0.085975	0.214010	4208.756348
4863.281767	0.086034	0.214010	4299.005859
4863.282695	0.085957	0.214010	4378.773926
4863.283565	0.085979	0.214010	4453.575684
4863.284630	0.086100	0.214010	4545.271973
4863.285636	0.085994	0.214010	4631.781738
4863.286528	0.086012	0.214010	4708.504395
4863.287491	0.086115	0.214010	4791.432617
4864.330171	1.038234	0.199504	440.211060
4864.331263	1.523752	0.199504	2104.148682
4864.332265	1.501000	0.199504	3608.150391
4864.333152	0.539989	0.199504	4087.120605
4864.334138	0.088293	0.199504	4174.177734
4864.335195	0.086012	0.199504	4265.092285
4864.336097	0.085935	0.199504	4342.605469
4864.336954	0.085961	0.199504	4416.273926
4864.338033	0.086085	0.199504	4509.159668
4864.339030	0.085942	0.199504	4594.844238
4864.339905	0.085884	0.199504	4669.992676
4864.340893	0.086067	0.199504	4755.026855
4864.341951	0.085950	0.199504	4845.961426
4864.342848	0.085975	0.199504	4923.081543
4865.331210	1.099578	0.214388	553.087524
4865.332201	1.525942	0.214388	2065.296387
4865.333093	1.506566	0.214388	3409.153320
4865.334086	0.639525	0.214388	4044.201904
4865.335143	0.087111	0.214388	4136.277832
4865.336040	0.085917	0.214388	4213.345215
4865.336904	0.085983	0.214388	4287.634277
4865.338017	0.086038	0.214388	4383.394043
4865.338984	0.085865	0.214388	4466.425781
4865.339870	0.085909	0.214388	4542.541504
4865.340895	0.086100	0.214388	4630.793945
4865.341915	0.085990	0.214388	4718.503906
4865.342798	0.086052	0.214388	4794.488281
4865.343693	0.086008	0.214388	4871.465820
4866.386358	1.023871	0.197905	430.025757
4866.387356	1.518615	0.197905	1945.603027
4866.388426	1.502816	0.197905	3553.616211
4866.389318	0.571578	0.197905	4063.464111
4866.390201	0.089117	0.197905	4142.154785
4866.391307	0.086067	0.197905	4237.344727
4866.392267	0.085887	0.197905	4319.796875
4866.393129	0.085931	0.197905	4393.869629
4866.394175	0.086155	0.197905	4483.987305
4866.395205	0.086005	0.197905	4572.572266
4866.396098	0.085928	0.197905	4649.305664
4866.397024	0.085953	0.197905	4728.898437
4866.398062	0.086034	0.197905	4818.201660
4866.399010	0.085931	0.197905	4899.664551
4867.388435	1.105393	0.209949	547.169556
4867.389319	1.521878	0.209949	1892.509277
4867.390190	1.511869	0.209949	3209.347168
4867.391127	0.856718	0.209949	4012.091553
4867.392111	0.091454	0.209949	4102.082031
4867.393043	0.085840	0.209949	4182.084961
4867.393925	0.085902	0.209949	4257.850586
4867.394955	0.085935	0.209949	4346.363770
4867.395861	0.085939	0.209949	4424.224121
4867.396731	0.085891	0.209949	4498.949219
4867.397588	0.085902	0.209949	4572.567383
4867.398629	0.085917	0.209949	4662.006836
4867.399506	0.085876	0.209949	4737.320312
4867.400371	0.085939	0.209949	4811.657227
4868.441614	1.105862	0.197054	556.248474
4868.442496	1.522701	0.197054	1899.270996
4868.443407	1.509408	0.197054	3274.341797
4868.444476	0.621478	0.197054	3938.702148
4868.445417	0.087953	0.197054	4021.465820
4868.446275	0.085844	0.197054	4095.119629
4868.447323	0.086104	0.197054	4185.355957
4868.448343	0.085939	0.197054	4273.013672
4868.449222	0.085939	0.197054	4348.553711
4868.450142	0.085979	0.197054	4427.654297
4868.451196	0.086016	0.197054	4518.314941
4868.452140	0.085884	0.197054	4599.389160
4868.453005	0.086005	0.197054	4673.783203
4868.454028	0.086071	0.197054	4761.833496
4869.444629	1.107393	0.208994	566.984985
4869.445540	1.524232	0.208994	1955.560425
4869.446407	1.508811	0.208994	3263.699707
4869.447504	0.595990	0.208994	3917.500732
4869.448495	0.086927	0.208994	4003.645996
4869.449383	0.085946	0.208994	4079.966064
4869.450366	0.086071	0.208994	4164.573242
4869.451410	0.086041	0.208994	4254.400391
4869.452309	0.085895	0.208994	4331.619629
4869.453169	0.086071	0.208994	4405.640137
4869.454269	0.086034	0.208994	4500.277344
4869.455232	0.085909	0.208994	4583.008301
4869.456087	0.085961	0.208994	4656.504883
4869.457163	0.086074	0.208994	4749.120605
4870.498284	1.090712	0.195250	509.362366
4870.499172	1.521178	0.195250	1860.168213
4870.500146	1.508723	0.195250	3329.664551
4870.501195	0.608782	0.195250	3968.276611
4870.502097	0.088286	0.195250	4047.910645
4870.502953	0.085807	0.195250	4121.361328
4870.504016	0.086078	0.195250	4212.862305
4870.505015	0.085950	0.195250	4298.726074
4870.505890	0.085917	0.195250	4373.903320
4870.506875	0.086019	0.195250	4458.632324
4870.507909	0.085997	0.195250	4547.553711
4870.508802	0.085946	0.195250	4624.303711
4870.509668	0.086001	0.195250	4698.780762
4870.510749	0.085986	0.195250	4791.731934
4871.499726	1.050817	0.213410	465.511780
4871.500822	1.524716	0.213410	2136.600098
4871.501777	1.502139	0.213410	3571.142578
4871.502644	0.604735	0.213410	4095.447998
4871.503684	0.087836	0.213410	4186.796875
4871.504700	0.086001	0.213410	4274.173828
4871.505583	0.085986	0.213410	4350.099609
4871.506516	0.086107	0.213410	4430.437500
4871.507565	0.086169	0.213410	4520.829102
4871.508495	0.085994	0.213410	4600.803223
4871.509351	0.086078	0.213410	4674.485840
4871.510381	0.086217	0.213410	4763.289551
4871.511407	0.086096	0.213410	4851.624023
4871.512301	0.086067	0.213410	4928.567871
4872.555450	1.026416	0.192869	433.147583
4872.556383	1.516209	0.192869	1847.770142
4872.557455	1.504691	0.192869	3460.799316
4872.558388	0.607072	0.192869	4027.197021
4872.559259	0.089414	0.192869	4105.076660
4872.560285	0.085968	0.192869	4193.279785
4872.561305	0.085891	0.192869	4280.888672
4872.562188	0.085942	0.192869	4356.775879
4872.563146	0.085968	0.192869	4439.133301
4872.564206	0.086056	0.192869	4530.352539
4872.565138	0.085876	0.192869	4610.389648
4872.566002	0.085906	0.192869	4684.612305
4872.567062	0.086019	0.192869	4775.792969
4872.568075	0.085957	0.192869	4862.867676
4873.556425	1.043888	0.212056	446.783997
4873.557412	1.518146	0.212056	1945.193848
4873.558363	1.506826	0.212056	3378.185547
4873.559293	0.709255	0.212056	4037.792969
4873.560154	0.091868	0.212056	4116.891113
4873.561194	0.085807	0.212056	4206.130371
4873.562077	0.085858	0.212056	4281.943359
4873.562939	0.085836	0.212056	4355.934082
4873.563866	0.085928	0.212056	4435.588867
4873.564847	0.085920	0.212056	4519.876953
4873.565760	0.085946	0.212056	4598.345703
4873.566634	0.085913	0.212056	4673.433594
4873.567696	0.085898	0.212056	4764.657715
4873.568595	0.085928	0.212056	4841.906738
4874.610738	1.127988	0.195129	614.753662
4874.611669	1.525470	0.195129	2034.966187
4874.612597	1.505878	0.195129	3432.420654
4874.613466	0.732184	0.195129	4068.688477
4874.614497	0.088484	0.195129	4159.915527
4874.615373	0.085822	0.195129	4235.095215
4874.616240	0.085909	0.195129	4309.578613
4874.617222	0.086049	0.195129	4394.078125
4874.618153	0.085968	0.195129	4474.114258
4874.619067	0.085953	0.195129	4552.675781
4874.619945	0.085994	0.195129	4628.178223
4874.620967	0.086005	0.195129	4716.075195
4874.621865	0.085950	0.195129	4793.257812
4874.622738	0.086008	0.195129	4868.343262
4875.613710	1.113977	0.209808	555.874512
4875.614664	1.524694	0.209808	2010.432251
4875.615536	1.508273	0.209808	3325.645996
4875.616570	0.621083	0.209808	3967.845703
4875.617616	0.086986	0.209808	4058.833252
4875.618504	0.085928	0.209808	4135.137207
4875.619443	0.085975	0.209808	4215.868164
4875.620507	0.085975	0.209808	4307.345703
4875.621442	0.085833	0.209808	4387.599121
4875.622307	0.085844	0.209808	4461.853516
4875.623366	0.085997	0.209808	4552.924805
4875.624371	0.085884	0.209808	4639.237793
4875.625267	0.085880	0.209808	4716.186523
4875.626212	0.086001	0.209808	4797.457520
4876.667850	1.035930	0.196599	450.629608
4876.668713	1.517256	0.196599	1760.021484
4876.669722	1.509434	0.196599	3283.040039
4876.670780	0.648193	0.196599	3968.828613
4876.671648	0.089257	0.196599	4046.303223
4876.672525	0.085961	0.196599	4121.690918
4876.673629	0.086071	0.196599	4216.712891
4876.674582	0.085957	0.196599	4298.629883
4876.675449	0.085953	0.196599	4373.151367
4876.676468	0.086140	0.196599	4460.928223
4876.677499	0.086012	0.196599	4549.606445
4876.678387	0.085990	0.196599	4625.965332
4876.679318	0.086056	0.196599	4706.083496
4876.680371	0.086078	0.196599	4796.723633
4877.670423	1.109220	0.208845	561.265320
4877.671334	1.524020	0.208845	1949.647461
4877.672201	1.509188	0.208845	3258.113770
4877.673276	0.620402	0.208845	3925.045410
4877.674278	0.087111	0.208845	4012.330322
4877.675164	0.085964	0.208845	4088.494629
4877.676151	0.086038	0.208845	4173.413574
4877.677201	0.086008	0.208845	4263.722168
4877.678108	0.085887	0.208845	4341.622070
4877.678971	0.086060	0.208845	4415.891602
4877.680081	0.086074	0.208845	4511.434082
4877.681053	0.085997	0.208845	4595.023437
4877.681920	0.086027	0.208845	4669.608398
4877.683025	0.086100	0.208845	4764.748535
4878.722595	1.088895	0.195778	576.025574
4878.723647	1.525342	0.195778	2180.685303
4878.724564	1.501681	0.195778	3557.726807
4878.725431	0.592646	0.195778	4071.551270
4878.726506	0.087191	0.195778	4165.281738
4878.727508	0.085884	0.195778	4251.337402
4878.728387	0.085858	0.195778	4326.806641
4878.729370	0.085990	0.195778	4411.334961
4878.730408	0.085972	0.195778	4500.573730
4878.731315	0.085869	0.195778	4578.457031
4878.732176	0.086034	0.195778	4652.532227
4878.733270	0.086125	0.195778	4746.753418
4878.734263	0.085928	0.195778	4832.079590
4878.735149	0.085942	0.195778	4908.224609
4879.726141	1.153769	0.212821	629.958130
4879.727204	1.526371	0.212821	2252.490234
4879.728081	1.502054	0.212821	3569.791992
4879.729018	0.560680	0.212821	4095.148926
4879.730087	0.086525	0.212821	4187.643555
4879.731018	0.086008	0.212821	4267.717285
4879.731887	0.086052	0.212821	4342.496582
4879.732924	0.086027	0.212821	4431.706055
4879.733936	0.085964	0.212821	4518.702148
4879.734831	0.085953	0.212821	4595.630371
4879.735781	0.086173	0.212821	4677.494629
4879.736822	0.086063	0.212821	4767.086426
4879.737755	0.085935	0.212821	4847.263672
4879.738616	0.086012	0.212821	4921.319824
4880.778677	1.042921	0.192023	438.026855
4880.779779	1.524800	0.192023	2118.356201
4880.780755	1.502018	0.192023	3584.325684
4880.781628	0.591724	0.192023	4100.900391
4880.782686	0.087374	0.192023	4193.342285
4880.783736	0.085931	0.192023	4283.570312
4880.784630	0.085913	0.192023	4360.376465
4880.785555	0.085968	0.192023	4439.896973
4880.786612	0.086074	0.192023	4530.877441
4880.787547	0.085891	0.192023	4611.185547
4880.788407	0.085983	0.192023	4685.130859
4880.789446	0.085990	0.192023	4774.474609
4880.790472	0.085972	0.192023	4862.681641
4880.791354	0.085983	0.192023	4938.518555
4881.783785	1.082227	0.213901	507.564301
4881.784665	1.520566	0.213901	1845.662720
4881.785528	1.512056	0.213901	3150.566895
4881.786631	0.694310	0.213901	3916.391113
4881.787570	0.088971	0.213901	3999.934814
4881.788446	0.085851	0.213901	4075.140137
4881.789420	0.085931	0.213901	4158.837402
4881.790432	0.085957	0.213901	4245.825684
4881.791321	0.085994	0.213901	4322.273926
4881.792181	0.085913	0.213901	4396.159180
4881.793238	0.085990	0.213901	4487.050781
4881.794165	0.085935	0.213901	4566.712402
4881.795034	0.085909	0.213901	4641.367676
4881.795969	0.085997	0.213901	4721.775391
4882.833879	1.064696	0.198251	471.660309
4882.834757	1.519025	0.198251	1805.364014
4882.835624	1.513806	0.198251	3117.833984
4882.836700	0.760005	0.198251	3935.599121
4882.837614	0.090901	0.198251	4018.682617
4882.838537	0.085756	0.198251	4097.834961
4882.839399	0.085844	0.198251	4171.832031
4882.840447	0.085858	0.198251	4261.811523
4882.841342	0.085836	0.198251	4338.634766
4882.842223	0.085876	0.198251	4414.291992
4882.843233	0.085898	0.198251	4501.049316
4882.844156	0.085917	0.198251	4580.350586
4882.845075	0.085909	0.198251	4659.301270
4882.845934	0.085920	0.198251	4733.106934
4883.840455	1.035403	0.212088	448.329407
4883.841320	1.516937	0.212088	1760.480225
4883.842315	1.509569	0.212088	3262.501465
4883.843376	0.646560	0.212088	3948.501709
4883.844270	0.088942	0.212088	4028.015625
4883.845156	0.085920	0.212088	4104.141113
4883.846244	0.085997	0.212088	4197.706055
4883.847195	0.085975	0.212088	4279.468750
4883.848060	0.085902	0.212088	4353.773926
4883.849086	0.086074	0.212088	4442.085937
4883.850124	0.085844	0.212088	4531.191406
4883.851012	0.085928	0.212088	4607.495117
4883.851940	0.086074	0.212088	4687.372070
4883.852986	0.086019	0.212088	4777.348145
4884.889623	1.111630	0.198477	565.819458
4884.890560	1.524133	0.198477	1993.932251
4884.891422	1.508734	0.198477	3294.460937
4884.892500	0.609792	0.198477	3951.817139
4884.893513	0.086990	0.198477	4039.937744
4884.894384	0.085884	0.198477	4114.742676
4884.895343	0.086111	0.198477	4197.322754
4884.896389	0.086049	0.198477	4287.329590
4884.897296	0.085891	0.198477	4365.232910
4884.898165	0.085917	0.198477	4439.894531
4884.899237	0.086074	0.198477	4532.166016
4884.900231	0.085946	0.198477	4617.596191
4884.901121	0.085957	0.198477	4694.098145
4884.902093	0.086012	0.198477	4777.701660
4885.896677	1.074631	0.210590	498.628937
4885.897556	1.520193	0.210590	1834.878418
4885.898511	1.509858	0.210590	3276.793213
4885.899570	0.640807	0.210590	3955.407715
4885.900484	0.088572	0.210590	4036.362305
4885.901345	0.085865	0.210590	4110.292480
4885.902421	0.086041	0.210590	4202.873047
4885.903416	0.085913	0.210590	4288.356445
4885.904288	0.085942	0.210590	4363.298340
4885.905267	0.086027	0.210590	4447.518555
4885.906304	0.085902	0.210590	4536.599121
4885.907207	0.085825	0.210590	4614.099121
4885.908064	0.085935	0.210590	4687.745605
4885.909130	0.085957	0.210590	4779.375977
4886.944694	1.043602	0.195053	438.312988
4886.945798	1.524353	0.195053	2121.198730
4886.946759	1.501729	0.195053	3564.359863
4886.947652	0.577258	0.195053	4079.851562
4886.948666	0.088055	0.195053	4169.139648
4886.949711	0.085928	0.195053	4258.934082
4886.950604	0.085844	0.195053	4335.592285
4886.951489	0.085968	0.195053	4411.673828
4886.952586	0.085953	0.195053	4505.964844
4886.953534	0.085887	0.195053	4587.386230
4886.954394	0.086023	0.195053	4661.366211
4886.955422	0.086071	0.195053	4749.846680
4886.956453	0.085990	0.195053	4838.502441
4886.957325	0.085983	0.195053	4913.479492
4887.953854	1.026866	0.204483	435.391357
4887.954751	1.516146	0.204483	1795.374512
4887.955856	1.504519	0.204483	3457.868164
4887.956808	0.588669	0.204483	4018.281494
4887.957675	0.089052	0.204483	4095.489258
4887.958702	0.086093	0.204483	4183.906250
4887.959733	0.085887	0.204483	4272.456055
4887.960622	0.085906	0.204483	4348.826172
4887.961566	0.086030	0.204483	4430.038574
4887.962622	0.086045	0.204483	4520.901855
4887.963553	0.085983	0.204483	4600.951660
4887.964418	0.085920	0.204483	4675.272949
4887.965481	0.086056	0.204483	4766.750488
4887.966499	0.085972	0.204483	4854.269531
4889.000899	1.030448	0.192567	440.001343
4889.001814	1.516311	0.192567	1827.425903
4889.002902	1.505057	0.192567	3464.928223
4889.003785	0.689890	0.192567	4074.101074
4889.004643	0.091333	0.192567	4152.464844
4889.005674	0.085854	0.192567	4240.980957
4889.006643	0.085858	0.192567	4324.177734
4889.007518	0.085972	0.192567	4399.402832
4889.008395	0.086005	0.192567	4474.829102
4889.009494	0.085986	0.192567	4569.328125
4889.010386	0.085884	0.192567	4645.936523
4889.011253	0.085953	0.192567	4720.458008
4889.012317	0.086184	0.192567	4812.157715
4889.013297	0.085924	0.192567	4896.363281
4890.010056	1.039937	0.206614	455.492218
4890.010931	1.518083	0.206614	1783.815186
4890.011901	1.510880	0.206614	3249.368896
4890.012931	0.688912	0.206614	3958.948730
4890.013808	0.091132	0.206614	4038.871094
4890.014667	0.085931	0.206614	4112.686035
4890.015744	0.086023	0.206614	4205.332520
4890.016670	0.085942	0.206614	4284.915039
4890.017537	0.085942	0.206614	4359.427246
4890.018477	0.086005	0.206614	4440.271484
4890.019517	0.085931	0.206614	4529.640137
4890.020412	0.085913	0.206614	4606.532227
4890.021277	0.085873	0.206614	4680.812012
4890.022304	0.085935	0.206614	4769.067383
4891.056131	1.103024	0.193957	536.069580
4891.057016	1.521757	0.193957	1882.824097
4891.057894	1.511565	0.193957	3209.978027
4891.058860	0.837682	0.193957	4019.178711
4891.059824	0.091890	0.193957	4107.760254
4891.060701	0.085865	0.193957	4183.064453
4891.061599	0.085939	0.193957	4260.237305
4891.062668	0.085928	0.193957	4352.094238
4891.063551	0.085829	0.193957	4427.881348
4891.064407	0.085880	0.193957	4501.394531
4891.065440	0.085902	0.193957	4590.131348
4891.066407	0.085865	0.193957	4673.163086
4891.067279	0.085924	0.193957	4748.088867
4891.068142	0.085968	0.193957	4822.279297
4892.066753	1.031265	0.210054	442.412537
4892.067623	1.516871	0.210054	1762.090576
4892.068498	1.512554	0.210054	3085.575195
4892.069550	0.817676	0.210054	3945.770020
4892.070430	0.095310	0.210054	4029.642822
4892.071298	0.085781	0.210054	4104.101074
4892.072309	0.085854	0.210054	4190.899902
4892.073221	0.085840	0.210054	4269.186035
4892.074123	0.085946	0.210054	4346.709473
4892.075002	0.085917	0.210054	4422.230469
4892.076013	0.085961	0.210054	4509.136719
4892.076911	0.085851	0.210054	4586.230957
4892.077784	0.085844	0.210054	4661.172363
4892.078722	0.085968	0.210054	4741.810547
4893.110713	1.028595	0.194875	436.124268
4893.111578	1.516099	0.194875	1747.549561
4893.112650	1.507387	0.194875	3363.468018
4893.113543	0.772701	0.194875	4053.490234
4893.114419	0.093761	0.194875	4135.625000
4893.115409	0.085917	0.194875	4220.682617
4893.116357	0.085913	0.194875	4302.128418
4893.117280	0.085939	0.194875	4381.449707
4893.118144	0.085909	0.194875	4455.675293
4893.119180	0.085990	0.194875	4544.760742
4893.120058	0.085862	0.194875	4620.147461
4893.120930	0.085928	0.194875	4695.076660
4893.121848	0.086041	0.194875	4774.062500
4893.122832	0.085924	0.194875	4858.611816
4894.125094	1.119507	0.203101	577.665527
4894.126057	1.525356	0.203101	2046.583740
4894.126985	1.504665	0.203101	3442.913330
4894.127912	0.648226	0.203101	4043.819092
4894.128771	0.090392	0.203101	4121.465820
4894.129743	0.085807	0.203101	4204.870117
4894.130669	0.085898	0.203101	4284.412109
4894.131542	0.085964	0.203101	4359.458984
4894.132562	0.085920	0.203101	4447.097656
4894.133456	0.085920	0.203101	4523.910645
4894.134373	0.085913	0.203101	4602.692871
4894.135235	0.085924	0.203101	4676.759277
4894.136232	0.085920	0.203101	4762.421875
4894.137154	0.085972	0.203101	4841.687988
4895.167497	1.071218	0.189582	542.036438
4895.168559	1.525261	0.189582	2161.863770
4895.169508	1.500542	0.189582	3585.877930
4895.170387	0.543845	0.189582	4063.917969
4895.171443	0.086887	0.189582	4155.670898
4895.172445	0.085898	0.189582	4241.741211
4895.173331	0.085942	0.189582	4317.886230
4895.174294	0.086111	0.189582	4400.811035
4895.175343	0.086001	0.189582	4491.025879
4895.176266	0.085876	0.189582	4570.290039
4895.177124	0.085961	0.189582	4644.044434
4895.178198	0.085986	0.189582	4736.393555
4895.179174	0.085862	0.189582	4820.194824
4895.180058	0.085924	0.189582	4896.151855
4896.182256	1.086793	0.202445	518.400330
4896.183135	1.521053	0.202445	1855.406250
4896.184084	1.509701	0.202445	3288.112305
4896.185151	0.616154	0.202445	3945.548340
4896.186086	0.087968	0.202445	4027.798096
4896.186946	0.085942	0.202445	4101.708496
4896.188005	0.086067	0.202445	4192.853516
4896.189014	0.085972	0.202445	4279.599121
4896.189909	0.086008	0.202445	4356.576660
4896.190876	0.086104	0.202445	4439.838867
4896.191909	0.086038	0.202445	4528.715820
4896.192827	0.086008	0.202445	4607.671387
4896.193688	0.086052	0.202445	4681.762207
4896.194769	0.086199	0.202445	4774.942871
4897.223096	1.024933	0.190122	429.446869
4897.224058	1.516948	0.190122	1888.751221
4897.225108	1.504428	0.190122	3468.400146
4897.226040	0.605178	0.190122	4032.426270
4897.226906	0.089473	0.190122	4109.909668
4897.227989	0.086049	0.190122	4203.100098
4897.228983	0.085983	0.190122	4288.566895
4897.229880	0.086082	0.190122	4365.782227
4897.230866	0.086162	0.190122	4450.738281
4897.231915	0.086111	0.190122	4541.068359
4897.232822	0.085957	0.190122	4619.031250
4897.233686	0.086060	0.190122	4693.386719
4897.234780	0.086067	0.190122	4787.543945
4897.235766	0.085979	0.190122	4872.319336
4898.237500	1.147295	0.201123	637.895935
4898.238561	1.526309	0.201123	2257.309326
4898.239468	1.500275	0.201123	3618.058594
4898.240352	0.537154	0.201123	4092.903076
4898.241431	0.086646	0.201123	4186.393555
4898.242391	0.085920	0.201123	4268.876953
4898.243255	0.085851	0.201123	4343.052246
4898.244282	0.086067	0.201123	4431.442871
4898.245318	0.085961	0.201123	4520.498047
4898.246199	0.085939	0.201123	4596.209961
4898.247093	0.085909	0.201123	4673.013184
4898.248179	0.086115	0.201123	4766.533691
4898.249126	0.085928	0.201123	4847.907227
4898.249983	0.086005	0.201123	4921.613281
4899.278391	1.137645	0.189953	613.190796
4899.279302	1.524829	0.189953	2002.310181
4899.280234	1.506321	0.189953	3406.201172
4899.281103	0.748517	0.189953	4056.662354
4899.282144	0.088594	0.189953	4148.888672
4899.283025	0.085833	0.189953	4224.507324
4899.283888	0.085891	0.189953	4298.631348
4899.284867	0.085957	0.189953	4382.783203
4899.285792	0.085876	0.189953	4462.218750
4899.286709	0.085928	0.189953	4541.014648
4899.287586	0.085972	0.189953	4616.411621
4899.288620	0.085917	0.189953	4705.249512
4899.289513	0.085865	0.189953	4781.927246
4899.290389	0.085942	0.189953	4857.212891
4900.294159	1.112882	0.202682	566.457031
4900.295191	1.525847	0.202682	2141.131348
4900.296086	1.503885	0.202682	3487.108887
4900.297058	0.614465	0.202682	4084.369141
4900.298095	0.086781	0.202682	4174.360840
4900.299025	0.085865	0.202682	4254.215820
4900.299886	0.085836	0.202682	4328.120605
4900.300939	0.086052	0.202682	4418.733398
4900.301946	0.085884	0.202682	4505.218262
4900.302823	0.085880	0.202682	4580.535156
4900.303803	0.086045	0.202682	4664.859375
4900.304847	0.085913	0.202682	4754.552734
4900.305757	0.085968	0.202682	4832.783691
4900.306613	0.085946	0.202682	4906.353516
4901.334543	1.105847	0.191213	555.135254
4901.335482	1.524470	0.191213	1986.612793
4901.336351	1.508591	0.191213	3297.578613
4901.337394	0.631721	0.191213	3956.463867
4901.338424	0.087067	0.191213	4046.142578
4901.339312	0.086008	0.191213	4122.518066
4901.340262	0.086082	0.191213	4204.295410
4901.341318	0.086012	0.191213	4295.124023
4901.342245	0.085994	0.191213	4374.840332
4901.343106	0.085964	0.191213	4448.855469
4901.344175	0.086019	0.191213	4540.810059
4901.345173	0.085869	0.191213	4626.507324
4901.346063	0.085935	0.191213	4702.989746
4901.347039	0.086056	0.191213	4786.980469
4902.350404	1.136019	0.201462	639.578796
4902.351470	1.525745	0.201462	2266.022705
4902.352363	1.500630	0.201462	3606.084961
4902.353229	0.540165	0.201462	4073.867676
4902.354320	0.086583	0.201462	4168.330078
4902.355287	0.085990	0.201462	4251.482422
4902.356152	0.085979	0.201462	4325.854492
4902.357178	0.086008	0.201462	4414.099121
4902.358225	0.086001	0.201462	4504.142090
4902.359117	0.085946	0.201462	4580.806152
4902.360005	0.086071	0.201462	4657.236816
4902.361099	0.086038	0.201462	4751.361816
4902.362042	0.085917	0.201462	4832.381348
4902.362908	0.086012	0.201462	4906.867676
4903.390794	1.157432	0.189469	658.578552
4903.391786	1.526711	0.189469	2173.076416
4903.392679	1.503523	0.189469	3515.722412
4903.393674	0.537872	0.189469	4050.905273
4903.394714	0.086583	0.189469	4140.951660
4903.395599	0.085928	0.189469	4216.997559
4903.396462	0.085990	0.189469	4291.207031
4903.397552	0.085968	0.189469	4384.912109
4903.398513	0.085898	0.189469	4467.460449
4903.399374	0.085997	0.189469	4541.503906
4903.400446	0.086155	0.189469	4633.861816
4903.401472	0.085942	0.189469	4722.038574
4903.402350	0.085975	0.189469	4797.524902
4903.403259	0.085994	0.189469	4875.693359
4904.405954	1.036392	0.205079	444.612000
4904.406822	1.517146	0.205079	1761.494629
4904.407843	1.508650	0.205079	3301.826172
4904.408771	0.765428	0.205079	4012.143799
4904.409701	0.091296	0.205079	4097.049316
4904.410564	0.085928	0.205079	4171.205078
4904.411601	0.085931	0.205079	4260.315918
4904.412496	0.085920	0.205079	4337.214844
4904.413369	0.085851	0.205079	4412.162598
4904.414356	0.086027	0.205079	4497.070801
4904.415289	0.085873	0.205079	4577.189941
4904.416161	0.085913	0.205079	4652.105957
4904.417129	0.086038	0.205079	4735.390137
4904.418161	0.085950	0.205079	4824.090332
4905.446842	1.024761	0.190283	430.399506
4905.447798	1.516205	0.190283	1879.891357
4905.448719	1.509617	0.190283	3270.248535
4905.449639	0.841494	0.190283	4044.423096
4905.450516	0.095548	0.190283	4128.218750
4905.451522	0.086019	0.190283	4214.754395
4905.452449	0.086027	0.190283	4294.500977
4905.453327	0.086034	0.190283	4370.038574
4905.454308	0.086063	0.190283	4454.466797
4905.455228	0.085935	0.190283	4533.526855
4905.456138	0.085990	0.190283	4611.777832
4905.457014	0.086005	0.190283	4687.117676
4905.457954	0.086045	0.190283	4768.000000
4905.458886	0.086023	0.190283	4848.173340
4906.462645	1.032352	0.201937	432.555634
4906.463721	1.522965	0.201937	2071.266113
4906.464729	1.501553	0.201937	3584.831055
4906.465606	0.572644	0.201937	4087.039795
4906.466588	0.088832	0.201937	4174.272461
4906.467631	0.086005	0.201937	4263.975098
4906.468533	0.086027	0.201937	4341.571289
4906.469399	0.086063	0.201937	4416.102051
4906.470500	0.086078	0.201937	4510.874023
4906.471493	0.085950	0.201937	4596.222168
4906.472393	0.085975	0.201937	4673.600098
4906.473380	0.086115	0.201937	4758.595215
4906.474442	0.086027	0.201937	4849.955566
4906.475332	0.085975	0.201937	4926.473633
4907.503136	1.107316	0.191556	583.555359
4907.504201	1.525712	0.191556	2208.438232
4907.505113	1.501267	0.191556	3577.593750
4907.505986	0.562401	0.191556	4068.569824
4907.507087	0.086763	0.191556	4164.095703
4907.508053	0.086001	0.191556	4247.172852
4907.508928	0.086023	0.191556	4322.442871
4907.509944	0.086155	0.191556	4409.976074
4907.510996	0.086005	0.191556	4500.453125
4907.511880	0.085997	0.191556	4576.474609
4907.512760	0.086173	0.191556	4652.307129
4907.513851	0.086184	0.191556	4746.333984
4907.514809	0.085957	0.191556	4828.680664
4907.515670	0.085972	0.191556	4902.702148
4908.518843	1.026929	0.204547	432.337006
4908.519852	1.520515	0.204547	1966.536743
4908.520911	1.502454	0.204547	3557.635254
4908.521813	0.552803	0.204547	4056.263428
4908.522716	0.089019	0.204547	4136.646973
4908.523779	0.086038	0.204547	4228.104980
4908.524731	0.085994	0.204547	4309.970703
4908.525592	0.086012	0.204547	4384.026855
4908.526636	0.086118	0.204547	4473.934082
4908.527663	0.086005	0.204547	4562.260742
4908.528544	0.085994	0.204547	4638.020996
4908.529484	0.086125	0.204547	4718.979004
4908.530550	0.086115	0.204547	4810.776855
4908.531489	0.086045	0.204547	4891.573242
4909.559253	1.050974	0.190992	475.040314
4909.560340	1.524232	0.190992	2131.880615
4909.561285	1.502183	0.190992	3551.443115
4909.562157	0.613279	0.190992	4086.222168
4909.563170	0.088011	0.190992	4175.377930
4909.564205	0.086085	0.190992	4264.476074
4909.565094	0.086045	0.190992	4340.970215
4909.566016	0.086082	0.190992	4420.337402
4909.567081	0.086151	0.190992	4512.088379
4909.568027	0.086034	0.190992	4593.476562
4909.568892	0.085994	0.190992	4667.860840
4909.569942	0.086188	0.190992	4758.357910
4909.570964	0.085994	0.190992	4846.243652
4909.571855	0.085983	0.190992	4922.854004
4910.573578	1.098842	0.202493	552.717285
4910.574529	1.524760	0.202493	2002.763550
4910.575394	1.508840	0.202493	3307.910400
4910.576446	0.624272	0.202493	3964.645020
4910.577470	0.087272	0.202493	4054.011230
4910.578351	0.086052	0.202493	4129.823242
4910.579285	0.086045	0.202493	4210.188965
4910.580351	0.086155	0.202493	4302.029785
4910.581284	0.085990	0.202493	4382.258301
4910.582144	0.086019	0.202493	4456.234863
4910.583185	0.086093	0.202493	4545.857422
4910.584203	0.086041	0.202493	4633.447266
4910.585074	0.086012	0.202493	4708.363770
4910.586025	0.086107	0.202493	4790.251465
4911.617050	1.115511	0.188378	565.564270
4911.617967	1.524005	0.188378	1963.076904
4911.618836	1.509529	0.188378	3274.857422
4911.619823	0.738571	0.188378	4003.826660
4911.620837	0.088326	0.188378	4093.389648
4911.621727	0.086008	0.188378	4169.937012
4911.622586	0.086104	0.188378	4243.899902
4911.623664	0.086122	0.188378	4336.739258
4911.624601	0.086008	0.188378	4417.329102
4911.625474	0.086030	0.188378	4492.433594
4911.626449	0.086082	0.188378	4576.363281
4911.627458	0.086096	0.188378	4663.234375
4911.628345	0.086060	0.188378	4739.569336
4911.629205	0.086100	0.188378	4813.615234
4912.629789	1.112157	0.203238	564.975769
4912.630803	1.525942	0.203238	2112.281494
4912.631685	1.504724	0.203238	3439.448242
4912.632605	0.659725	0.203238	4046.395508
4912.633467	0.090557	0.203238	4124.455566
4912.634445	0.085950	0.203238	4208.514160
4912.635367	0.086089	0.203238	4287.888184
4912.636243	0.086096	0.203238	4363.308594
4912.637267	0.085990	0.203238	4451.362305
4912.638163	0.086019	0.203238	4528.435547
4912.639080	0.085990	0.203238	4607.288574
4912.639948	0.086005	0.203238	4681.940430
4912.640929	0.085968	0.203238	4766.274902
4912.641851	0.085972	0.203238	4845.541016
4913.672786	1.164752	0.189151	656.920288
4913.673817	1.526261	0.189151	2230.495361
4913.674706	1.502040	0.189151	3565.808594
4913.675661	0.562229	0.189151	4102.737305
4913.676722	0.086620	0.189151	4194.641113
4913.677645	0.085997	0.189151	4274.016602
4913.678503	0.085975	0.189151	4347.783203
4913.679551	0.086158	0.189151	4438.077148
4913.680583	0.086049	0.189151	4526.879395
4913.681451	0.086016	0.189151	4601.541016
4913.682405	0.086056	0.189151	4683.638184
4913.683442	0.086063	0.189151	4772.885742
4913.684366	0.086038	0.189151	4852.384277
4913.685229	0.086023	0.189151	4926.622070
4914.685396	1.052450	0.203967	472.550018
4914.686482	1.524342	0.203967	2127.985352
4914.687441	1.501868	0.203967	3568.276367
4914.688309	0.604255	0.203967	4092.770020
4914.689337	0.087861	0.203967	4183.091309
4914.690365	0.086067	0.203967	4271.567871
4914.691230	0.086074	0.203967	4346.021973
4914.692130	0.086056	0.203967	4423.472168
4914.693217	0.086093	0.203967	4517.054687
4914.694165	0.086049	0.203967	4598.628906
4914.695026	0.086034	0.203967	4672.704102
4914.696042	0.086173	0.203967	4760.255859
4914.697071	0.086052	0.203967	4848.803711
4914.697958	0.085997	0.203967	4925.083496
4915.729444	1.123209	0.196031	580.699158
4915.730456	1.526169	0.196031	2125.182617
4915.731331	1.505090	0.196031	3442.136719
4915.732331	0.602615	0.196031	4044.751465
4915.733375	0.087008	0.196031	4135.587891
4915.734271	0.085942	0.196031	4212.592285
4915.735127	0.086067	0.196031	4286.265625
4915.736185	0.086111	0.196031	4377.371094
4915.737174	0.085946	0.196031	4462.371582
4915.738068	0.086001	0.196031	4539.256348
4915.739047	0.085990	0.196031	4623.440430
4915.740105	0.086019	0.196031	4714.448730
4915.741005	0.085946	0.196031	4791.800293
4915.741866	0.086224	0.196031	4866.039551
4916.740127	1.111212	0.207576	565.606995
4916.741006	1.522222	0.207576	1903.639893
4916.741874	1.511184	0.207576	3215.347656
4916.742785	0.864836	0.207576	4003.213623
4916.743809	0.090575	0.207576	4095.962402
4916.744695	0.085939	0.207576	4172.104004
4916.745560	0.086012	0.207576	4246.504395
4916.746674	0.086096	0.207576	4342.415527
4916.747583	0.085968	0.207576	4420.560547
4916.748446	0.085935	0.207576	4494.722656
4916.749583	0.086184	0.207576	4592.713867
4916.750554	0.085986	0.207576	4676.206543
4916.751428	0.086049	0.207576	4751.413086
4916.752309	0.086133	0.207576	4827.295898
4917.787097	1.054318	0.189236	470.225647
4917.787964	1.517988	0.189236	1786.321533
4917.789001	1.507573	0.189236	3349.675049
4917.790047	0.584751	0.189236	3961.324707
4917.790924	0.088535	0.189236	4038.969971
4917.791847	0.086008	0.189236	4118.355469
4917.792918	0.086082	0.189236	4210.548828
4917.793845	0.085979	0.189236	4290.251465
4917.794756	0.086008	0.189236	4368.604980
4917.795640	0.086085	0.189236	4444.704102
4917.796579	0.086005	0.189236	4525.462402
4917.797525	0.086100	0.189236	4606.913086
4917.798443	0.086023	0.189236	4685.882324
4917.799305	0.086038	0.189236	4760.046875
4918.796782	1.083201	0.205877	511.270660
4918.797660	1.520226	0.205877	1846.028809
4918.798654	1.507841	0.205877	3344.822266
4918.799722	0.579119	0.205877	3963.321045
4918.800615	0.087916	0.205877	4041.830322
4918.801480	0.085968	0.205877	4116.192871
4918.802556	0.086177	0.205877	4208.918945
4918.803544	0.085979	0.205877	4293.866211
4918.804438	0.086115	0.205877	4370.852539
4918.805423	0.086023	0.205877	4455.584961
4918.806465	0.086023	0.205877	4545.220703
4918.807372	0.085968	0.205877	4623.193848
4918.808236	0.086074	0.205877	4697.562012
4918.809343	0.086118	0.205877	4792.895020
4919.843306	1.085973	0.192253	506.063385
4919.844194	1.520966	0.192253	1856.680786
4919.845170	1.508394	0.192253	3328.873047
4919.846235	0.584381	0.192253	3951.238770
4919.847159	0.087583	0.192253	4032.165527
4919.848025	0.085975	0.192253	4106.620117
4919.849097	0.086012	0.192253	4198.824707
4919.850090	0.086045	0.192253	4284.267090
4919.850985	0.086019	0.192253	4361.254395
4919.851982	0.086210	0.192253	4447.205566
4919.853027	0.086067	0.192253	4537.145508
4919.853921	0.085997	0.192253	4614.027344
4919.854776	0.085957	0.192253	4687.520508
4919.855888	0.086202	0.192253	4783.377441
4920.852514	1.114655	0.201349	572.932434
4920.853474	1.525155	0.201349	2037.081299
4920.854341	1.507632	0.201349	3344.198242
4920.855376	0.620742	0.201349	3986.666504
4920.856424	0.087103	0.201349	4077.950684
4920.857300	0.086012	0.201349	4153.297363
4920.858236	0.085997	0.201349	4233.791016
4920.859305	0.086060	0.201349	4325.788574
4920.860244	0.085968	0.201349	4406.512695
4920.861107	0.086008	0.201349	4480.737793
4920.862139	0.086158	0.201349	4569.653320
4920.863159	0.085953	0.201349	4657.325684
4920.864049	0.086023	0.201349	4733.886230
4920.864996	0.086012	0.201349	4815.339355
4921.899985	1.051996	0.195109	462.878174
4921.900858	1.518398	0.195109	1788.439941
4921.901721	1.512228	0.195109	3093.492676
4921.902835	0.737395	0.195109	3914.950684
4921.903739	0.090612	0.195109	3996.863525
4921.904618	0.085854	0.195109	4072.329590
4921.905638	0.086049	0.195109	4160.099121
4921.906618	0.085906	0.195109	4244.286621
4921.907504	0.085920	0.195109	4320.412109
4921.908360	0.086005	0.195109	4394.032227
4921.909448	0.086001	0.195109	4487.601074
4921.910336	0.085964	0.195109	4563.937500
4921.911202	0.085957	0.195109	4638.376465
4921.912182	0.086136	0.195109	4722.790039
4922.906568	1.035183	0.207105	444.093536
4922.907452	1.518025	0.207105	1786.027466
4922.908328	1.513707	0.207105	3112.035156
4922.909198	0.993585	0.207105	3976.454102
4922.910200	0.101444	0.207105	4078.101074
4922.911124	0.085873	0.207105	4157.447754
4922.911981	0.086012	0.207105	4231.160156
4922.913000	0.086129	0.207105	4318.925781
4922.913888	0.086100	0.207105	4395.382324
4922.914798	0.086027	0.207105	4473.666504
4922.915673	0.086049	0.207105	4548.958984
4922.916659	0.086019	0.207105	4633.773926
4922.917591	0.085968	0.207105	4713.895996
4922.918469	0.086104	0.207105	4789.495117
4923.957180	1.028675	0.190400	436.158386
4923.958181	1.517666	0.190400	1955.342041
4923.959220	1.503314	0.190400	3517.285645
4923.960122	0.601176	0.190400	4059.545898
4923.960977	0.089740	0.190400	4136.273437
4923.962069	0.086045	0.190400	4230.234375
4923.963061	0.085869	0.190400	4315.416504
4923.963934	0.085957	0.190400	4390.457031
4923.964943	0.085997	0.190400	4477.228516
4923.965986	0.086023	0.190400	4566.950684
4923.966876	0.085975	0.190400	4643.468750
4923.967744	0.085961	0.190400	4718.082520
4923.968836	0.086115	0.190400	4812.119629
4923.969793	0.085950	0.190400	4894.373535
4924.963778	1.035110	0.200317	444.062134
4924.964782	1.518706	0.200317	1968.843018
4924.965845	1.502190	0.200317	3565.670898
4924.966748	0.555623	0.200317	4067.397949
4924.967603	0.088883	0.200317	4143.393066
4924.968689	0.086133	0.200317	4236.933105
4924.969640	0.085950	0.200317	4318.671387
4924.970521	0.086052	0.200317	4394.483398
4924.971519	0.086122	0.200317	4480.433105
4924.972577	0.086104	0.200317	4571.530762
4924.973465	0.086034	0.200317	4647.928711
4924.974336	0.086049	0.200317	4722.876953
4924.975446	0.086125	0.200317	4818.476074
4924.976399	0.086063	0.200317	4900.494141
4926.014485	1.086453	0.191012	559.523071
4926.015557	1.525276	0.191012	2194.618896
4926.016480	1.500725	0.191012	3579.788086
4926.017362	0.545149	0.191012	4060.609375
4926.018434	0.086832	0.191012	4153.693359
4926.019441	0.085997	0.191012	4240.292480
4926.020335	0.086008	0.191012	4317.184082
4926.021299	0.086019	0.191012	4400.106445
4926.022346	0.085931	0.191012	4490.076660
4926.023254	0.085924	0.191012	4568.095703
4926.024115	0.086074	0.191012	4642.205566
4926.025216	0.086133	0.191012	4737.037598
4926.026181	0.085920	0.191012	4819.950684
4926.027064	0.086027	0.191012	4895.912109
4927.018036	1.142882	0.203105	613.727722
4927.019088	1.525605	0.203105	2218.664551
4927.019983	1.501696	0.203105	3562.682129
4927.020895	0.574193	0.203105	4086.346191
4927.021985	0.086602	0.203105	4180.741699
4927.022928	0.085968	0.203105	4261.809570
4927.023802	0.086012	0.203105	4336.983887
4927.024832	0.086093	0.203105	4425.659180
4927.025847	0.086030	0.203105	4512.979980
4927.026745	0.085964	0.203105	4590.175781
4927.027690	0.086012	0.203105	4671.457031
4927.028734	0.086023	0.203105	4761.265137
4927.029658	0.085917	0.203105	4840.652344
4927.030518	0.086019	0.203105	4914.628906
4928.071250	1.157113	0.184941	667.654175
4928.072316	1.525836	0.184941	2294.195557
4928.073189	1.500384	0.184941	3604.031250
4928.074101	0.528391	0.184941	4085.923828
4928.075179	0.086459	0.184941	4179.126465
4928.076134	0.085920	0.184941	4261.180664
4928.077001	0.085939	0.184941	4335.689453
4928.078013	0.086210	0.184941	4422.933594
4928.079041	0.085997	0.184941	4511.338867
4928.079937	0.086019	0.184941	4588.412109
4928.080880	0.086107	0.184941	4669.611328
4928.081945	0.086041	0.184941	4761.245117
4928.082885	0.085920	0.184941	4842.010254
4928.083748	0.086085	0.184941	4916.301758
4929.074104	1.031019	0.198336	433.028076
4929.075189	1.523258	0.198336	2085.763184
4929.076129	1.503585	0.198336	3499.133301
4929.077005	0.674030	0.198336	4089.583252
4929.077975	0.090978	0.198336	4177.831543
4929.078996	0.085942	0.198336	4265.578613
4929.079869	0.085884	0.198336	4340.555176
4929.080733	0.085990	0.198336	4414.850586
4929.081770	0.086188	0.198336	4504.227051
4929.082716	0.085997	0.198336	4585.580566
4929.083594	0.086052	0.198336	4661.134277
4929.084519	0.086085	0.198336	4740.763184
4929.085583	0.086038	0.198336	4832.307129
4929.086471	0.085979	0.198336	4908.656250
4930.127286	1.027295	0.183499	430.436615
4930.128343	1.523236	0.183499	2040.497192
4930.129308	1.503816	0.183499	3491.679687
4930.130185	0.672667	0.183499	4081.608887
4930.131117	0.091176	0.183499	4166.584473
4930.132168	0.085935	0.183499	4256.902344
4930.133049	0.086005	0.183499	4332.672363
4930.133913	0.086005	0.183499	4406.980469
4930.134955	0.086056	0.183499	4496.650879
4930.135908	0.085997	0.183499	4578.606445
4930.136771	0.086008	0.183499	4652.831543
4930.137683	0.086030	0.183499	4731.291016
4930.138771	0.086063	0.183499	4824.927734
4930.139663	0.085942	0.183499	4901.588379
4931.130822	1.041460	0.194247	444.703400
4931.131849	1.520526	0.194247	2006.283569
4931.132760	1.506090	0.194247	3378.331543
4931.133686	0.712247	0.194247	4037.872559
4931.134544	0.092179	0.194247	4116.961914
4931.135596	0.085917	0.194247	4207.346191
4931.136463	0.085997	0.194247	4281.905762
4931.137335	0.086019	0.194247	4356.914551
4931.138311	0.086067	0.194247	4440.916016
4931.139244	0.085928	0.194247	4521.086426
4931.140157	0.086027	0.194247	4599.628906
4931.141028	0.085972	0.194247	4674.510254
4931.142064	0.086063	0.194247	4763.671875
4931.142954	0.086008	0.194247	4840.219238
4932.183541	1.086035	0.183169	516.952698
4932.184415	1.520691	0.183169	1846.036621
4932.185360	1.509302	0.183169	3272.326660
4932.186295	0.797769	0.183169	4018.240234
4932.187217	0.092465	0.183169	4103.492676
4932.188095	0.085909	0.183169	4178.920898
4932.189097	0.085880	0.183169	4264.972656
4932.190011	0.085935	0.183169	4343.517090
4932.190902	0.085946	0.183169	4420.095215
4932.191902	0.085961	0.183169	4506.055664
4932.192813	0.085854	0.183169	4584.269043
4932.193732	0.085928	0.183169	4663.236816
4932.194594	0.085913	0.183169	4737.293945
4932.195547	0.085928	0.183169	4819.183105
4933.185034	1.098007	0.201143	550.101318
4933.185926	1.522738	0.201143	1908.383667
4933.186793	1.508822	0.201143	3216.532227
4933.187917	0.597656	0.201143	3888.297852
4933.188884	0.087268	0.201143	3972.686035
4933.189751	0.085946	0.201143	4047.201172
4933.190777	0.086052	0.201143	4135.490723
4933.191815	0.085964	0.201143	4224.721680
4933.192702	0.085906	0.201143	4300.919922
4933.193600	0.086034	0.201143	4378.178223
4933.194689	0.086085	0.201143	4471.924805
4933.195634	0.085895	0.201143	4553.095215
4933.196497	0.085961	0.201143	4627.279297
4933.197546	0.086089	0.201143	4717.586426
4934.239166	1.030569	0.181707	439.022339
4934.240029	1.516051	0.181707	1747.374268
4934.241135	1.505698	0.181707	3412.676514
4934.242111	0.614850	0.181707	4012.770020
4934.242970	0.089572	0.181707	4089.711914
4934.244009	0.085997	0.181707	4179.062988
4934.245068	0.085964	0.181707	4270.099121
4934.245939	0.085924	0.181707	4344.938965
4934.246858	0.085961	0.181707	4423.937012
4934.247922	0.086071	0.181707	4515.516113
4934.248866	0.085865	0.181707	4596.573242
4934.249733	0.085942	0.181707	4671.085449
4934.250772	0.085975	0.181707	4760.414062
4934.251789	0.085862	0.181707	4847.735352
4935.242685	1.026519	0.197735	433.190857
4935.243645	1.517065	0.197735	1889.573730
4935.244715	1.503464	0.197735	3498.280518
4935.245618	0.609375	0.197735	4048.546143
4935.246484	0.089678	0.197735	4126.207031
4935.247560	0.086049	0.197735	4218.795410
4935.248554	0.086030	0.197735	4304.309570
4935.249448	0.086045	0.197735	4381.233887
4935.250436	0.086155	0.197735	4466.354980
4935.251487	0.086023	0.197735	4556.765137
4935.252387	0.086001	0.197735	4634.166016
4935.253249	0.086008	0.197735	4708.305176
4935.254341	0.086012	0.197735	4802.230469
4935.255309	0.085968	0.197735	4885.447266
4936.295880	1.034656	0.181912	443.867340
4936.296836	1.516721	0.181912	1893.852661
4936.297889	1.503926	0.181912	3477.486572
4936.298807	0.616750	0.181912	4043.663574
4936.299672	0.089619	0.181912	4121.184082
4936.300648	0.085997	0.181912	4205.117676
4936.301659	0.085891	0.181912	4291.953613
4936.302553	0.085895	0.181912	4368.743652
4936.303414	0.085953	0.181912	4442.749512
4936.304469	0.085968	0.181912	4533.445801
4936.305402	0.085961	0.181912	4613.646973
4936.306280	0.085913	0.181912	4689.078613
4936.307238	0.085953	0.181912	4771.421875
4936.308245	0.085913	0.181912	4857.936523
4937.298888	1.041262	0.199705	448.783997
4937.299760	1.517432	0.199705	1771.984375
4937.300619	1.512532	0.199705	3071.249023
4937.301688	0.804298	0.199705	3931.043701
4937.302570	0.094772	0.199705	4014.632324
4937.303436	0.085756	0.199705	4088.896729
4937.304418	0.085942	0.199705	4173.291992
4937.305350	0.085994	0.199705	4253.437988
4937.306266	0.085957	0.199705	4332.174805
4937.307141	0.085931	0.199705	4407.364746
4937.308179	0.085986	0.199705	4496.618652
4937.309078	0.085968	0.199705	4573.903809
4937.309958	0.085957	0.199705	4649.545898
4937.310914	0.086085	0.199705	4731.843262
4938.352066	1.042822	0.182549	449.456390
4938.352933	1.516688	0.182549	1764.425171
4938.354031	1.505229	0.182549	3417.166992
4938.355012	0.593987	0.182549	3999.868164
4938.355880	0.089132	0.182549	4077.234863
4938.356940	0.085931	0.182549	4168.322266
4938.357973	0.085979	0.182549	4257.138672
4938.358859	0.085957	0.182549	4333.296387
4938.359775	0.085975	0.182549	4412.049805
4938.360834	0.086016	0.182549	4503.140137
4938.361776	0.085920	0.182549	4584.077148
4938.362634	0.085924	0.182549	4657.799805
4938.363673	0.086151	0.182549	4747.311035
4938.364688	0.085997	0.182549	4834.598145
4939.354120	1.101449	0.203689	548.521606
4939.355064	1.523610	0.203689	1986.809082
4939.355925	1.508415	0.203689	3285.554687
4939.357000	0.604889	0.203689	3935.810303
4939.358025	0.086884	0.203689	4024.865967
4939.358913	0.085891	0.203689	4101.137207
4939.359882	0.086023	0.203689	4184.493652
4939.360932	0.085986	0.203689	4274.779297
4939.361850	0.085983	0.203689	4353.711426
4939.362715	0.086005	0.203689	4428.105469
4939.363796	0.085950	0.203689	4521.017090
4939.364788	0.085946	0.203689	4606.275391
4939.365677	0.085990	0.203689	4682.720703
4939.366658	0.086136	0.203689	4767.220703
4940.407322	1.114109	0.181755	561.510925
4940.408257	1.524368	0.181755	1986.794678
4940.409120	1.508840	0.181755	3288.923828
4940.410178	0.635995	0.181755	3961.806396
4940.411196	0.087341	0.181755	4050.719727
4940.412073	0.085939	0.181755	4126.087891
4940.413006	0.086019	0.181755	4206.343750
4940.414073	0.085979	0.181755	4298.083496
4940.415002	0.085917	0.181755	4377.900391
4940.415868	0.085913	0.181755	4452.301270
4940.416896	0.085972	0.181755	4540.680176
4940.417916	0.085928	0.181755	4628.326660
4940.418805	0.085931	0.181755	4704.719727
4940.419757	0.086056	0.181755	4786.645020
4941.410844	1.108685	0.198436	567.646851
4941.411739	1.523031	0.198436	1930.759644
4941.412609	1.509946	0.198436	3244.412842
4941.413604	0.735428	0.198436	3976.164062
4941.414603	0.088550	0.198436	4064.625244
4941.415504	0.085990	0.198436	4142.102051
4941.416369	0.086074	0.198436	4216.556152
4941.417471	0.086060	0.198436	4311.393555
4941.418384	0.086034	0.198436	4389.942383
4941.419258	0.086008	0.198436	4465.113770
4941.420247	0.086136	0.198436	4550.302734
4941.421241	0.085994	0.198436	4635.780273
4941.422127	0.086023	0.198436	4711.996582
4941.422989	0.086060	0.198436	4786.179687
4942.464013	1.103152	0.182085	551.575928
4942.464922	1.522958	0.182085	1935.944458
4942.465840	1.508024	0.182085	3320.310059
4942.466726	0.835232	0.182085	4060.325439
4942.467693	0.095002	0.182085	4152.192871
4942.468613	0.085950	0.182085	4231.266602
4942.469495	0.086038	0.182085	4307.151855
4942.470433	0.086060	0.182085	4387.875977
4942.471386	0.086052	0.182085	4469.883789
4942.472301	0.085990	0.182085	4548.564453
4942.473172	0.086089	0.182085	4623.547852
4942.474205	0.086093	0.182085	4712.481445
4942.475089	0.086005	0.182085	4788.509766
4942.476010	0.085975	0.182085	4867.692871
4943.467980	1.042412	0.197582	457.618896
4943.468850	1.517640	0.197582	1777.965942
4943.469899	1.506716	0.197582	3358.511475
4943.470925	0.578207	0.197582	3951.751709
4943.471818	0.088418	0.197582	4030.708984
4943.472781	0.086045	0.197582	4113.570312
4943.473829	0.086071	0.197582	4203.772461
4943.474749	0.086082	0.197582	4282.967285
4943.475610	0.086041	0.197582	4357.048828
4943.476691	0.086224	0.197582	4450.257324
4943.477687	0.085964	0.197582	4535.877930
4943.478572	0.086093	0.197582	4612.069824
4943.479549	0.086089	0.197582	4696.178711
4943.480591	0.086067	0.197582	4785.860352
4944.519156	1.058383	0.184933	511.198761
4944.520234	1.524525	0.184933	2154.636963
4944.521184	1.500758	0.184933	3580.356934
4944.522055	0.568063	0.184933	4075.139648
4944.523074	0.087469	0.184933	4164.270996
4944.524104	0.086012	0.184933	4252.863281
4944.524996	0.085898	0.184933	4329.484863
4944.525925	0.086016	0.184933	4409.393555
4944.526994	0.085997	0.184933	4501.324707
4944.527929	0.085979	0.184933	4581.714844
4944.528793	0.085895	0.184933	4655.927734
4944.529845	0.086089	0.184933	4746.493164
4944.530838	0.085917	0.184933	4831.808594
4944.531718	0.085972	0.184933	4907.463867
4945.523134	1.053900	0.199576	452.123138
4945.524192	1.524452	0.199576	2064.993164
4945.525081	1.506248	0.199576	3404.047363
4945.525956	0.779583	0.199576	4086.182129
4945.526944	0.092867	0.199576	4177.935059
4945.527874	0.085887	0.199576	4257.810547
4945.528788	0.085957	0.199576	4336.375488
4945.529664	0.085961	0.199576	4411.677246
4945.530699	0.085975	0.199576	4500.661621
4945.531593	0.085961	0.199576	4577.510254
4945.532463	0.086001	0.199576	4652.331055
4945.533425	0.086147	0.199576	4735.205078
4945.534393	0.085986	0.199576	4818.439941
4945.535311	0.085917	0.199576	4897.311523
4946.575297	1.039658	0.185429	442.894379
4946.576358	1.522548	0.185429	2058.317383
4946.577362	1.501333	0.185429	3565.655762
4946.578256	0.571450	0.185429	4076.532227
4946.579248	0.088715	0.185429	4164.537109
4946.580295	0.085957	0.185429	4254.534180
4946.581188	0.085898	0.185429	4331.241699
4946.582046	0.086063	0.185429	4405.083984
4946.583127	0.086001	0.185429	4498.051270
4946.584127	0.086005	0.185429	4584.055664
4946.584999	0.085931	0.185429	4658.987793
4946.585983	0.086056	0.185429	4743.666992
4946.587029	0.085997	0.185429	4833.620117
4946.587922	0.085931	0.185429	4910.356934
4947.580879	1.042496	0.198162	458.698395
4947.581748	1.516908	0.198162	1776.891357
4947.582798	1.506863	0.198162	3359.097168
4947.583826	0.589611	0.198162	3965.216797
4947.584697	0.088627	0.198162	4042.410645
4947.585654	0.085880	0.198162	4124.598145
4947.586700	0.086060	0.198162	4214.616211
4947.587628	0.086034	0.198162	4294.455566
4947.588495	0.085891	0.198162	4368.923340
4947.589556	0.085986	0.198162	4460.154785
4947.590561	0.085950	0.198162	4546.534180
4947.591448	0.085953	0.198162	4622.774902
4947.592409	0.086060	0.198162	4705.478027
4947.593459	0.086045	0.198162	4795.825195
4948.630046	1.113417	0.187000	572.296143
4948.630955	1.523584	0.187000	1957.234009
4948.631817	1.508346	0.187000	3257.428223
4948.632902	0.629645	0.187000	3940.592773
4948.633893	0.087378	0.187000	4027.184326
4948.634766	0.085917	0.187000	4102.189453
4948.635749	0.086074	0.187000	4186.800293
4948.636822	0.086027	0.187000	4279.106934
4948.637698	0.085939	0.187000	4354.389160
4948.638561	0.086008	0.187000	4428.614258
4948.639656	0.086063	0.187000	4522.853516
4948.640633	0.086049	0.187000	4606.922852
4948.641503	0.085975	0.187000	4681.721191
4948.642555	0.086155	0.187000	4772.355957
4949.638076	1.033509	0.197473	440.275055
4949.639082	1.520544	0.197473	1969.942749
4949.640134	1.502259	0.197473	3550.319824
4949.641032	0.570099	0.197473	4062.268555
4949.641924	0.089139	0.197473	4141.780762
4949.643019	0.086012	0.197473	4235.963867
4949.643977	0.085939	0.197473	4318.292969
4949.644841	0.085935	0.197473	4392.541016
4949.645894	0.086071	0.197473	4483.173340
4949.646911	0.085957	0.197473	4570.591797
4949.647796	0.085884	0.197473	4646.599121
4949.648733	0.086027	0.197473	4727.206055
4949.649793	0.085968	0.197473	4818.332031
4949.650724	0.085931	0.197473	4898.333984
4950.685111	1.024735	0.183209	431.413483
4950.686142	1.521010	0.183209	1999.574341
4950.687116	1.504398	0.183209	3464.858154
4950.687997	0.689425	0.183209	4072.241699
4950.688876	0.091611	0.183209	4152.768066
4950.689993	0.086030	0.183209	4248.863770
4950.690893	0.085833	0.183209	4326.112793
4950.691759	0.085887	0.183209	4400.491211
4950.692835	0.086118	0.183209	4493.154297
4950.693811	0.085898	0.183209	4576.991211
4950.694686	0.086001	0.183209	4652.242187
4950.695566	0.085968	0.183209	4727.894043
4950.696663	0.085975	0.183209	4822.208984
4950.697539	0.085902	0.183209	4897.458984
4951.694285	1.045173	0.196193	452.560028
4951.695157	1.517421	0.196193	1775.750854
4951.696132	1.510382	0.196193	3248.373535
4951.697079	0.808121	0.196193	4013.664551
4951.697998	0.093021	0.196193	4099.150879
4951.698873	0.085961	0.196193	4174.366699
4951.699904	0.086034	0.196193	4263.067871
4951.700798	0.085994	0.196193	4339.946289
4951.701669	0.086012	0.196193	4414.862793
4951.702546	0.086155	0.196193	4490.420410
4951.703588	0.086067	0.196193	4580.102051
4951.704476	0.085931	0.196193	4656.409180
4951.705347	0.085975	0.196193	4731.293945
4951.706339	0.086078	0.196193	4816.683105
4952.741306	1.030151	0.180373	433.693726
4952.742358	1.522306	0.180373	2035.159424
4952.743372	1.501674	0.180373	3557.856445
4952.744259	0.583802	0.180373	4075.689209
4952.745251	0.089125	0.180373	4164.101074
4952.746301	0.086041	0.180373	4254.444336
4952.747202	0.086060	0.180373	4331.983887
4952.748059	0.086016	0.180373	4405.699219
4952.749148	0.086016	0.180373	4499.370117
4952.750136	0.085880	0.180373	4584.219727
4952.751008	0.086001	0.180373	4659.212402
4952.751992	0.086111	0.180373	4743.945312
4952.753045	0.086001	0.180373	4834.504395
4952.753942	0.085979	0.180373	4911.627441
4953.750972	1.027094	0.197562	433.433472
4953.751977	1.518695	0.197562	1959.721924
4953.753039	1.502413	0.197562	3555.284668
4953.753929	0.582447	0.197562	4073.662842
4953.754808	0.089337	0.197562	4152.190430
4953.755904	0.085972	0.197562	4246.415527
4953.756855	0.085975	0.197562	4328.178223
4953.757712	0.086008	0.197562	4401.887207
4953.758715	0.086078	0.197562	4488.223145
4953.759764	0.086023	0.197562	4578.461426
4953.760638	0.085964	0.197562	4653.594238
4953.761558	0.085990	0.197562	4732.705078
4953.762615	0.086052	0.197562	4823.662109
4953.763566	0.085906	0.197562	4905.358398
4954.797007	1.053724	0.178714	459.423828
4954.797874	1.517106	0.178714	1774.754517
4954.798971	1.505127	0.178714	3425.878906
4954.799971	0.535313	0.178714	3961.191406
4954.800849	0.088268	0.178714	4038.690430
4954.801844	0.085968	0.178714	4124.228516
4954.802881	0.085964	0.178714	4213.373535
4954.803773	0.085961	0.178714	4290.050293
4954.804630	0.085917	0.178714	4363.681152
4954.805737	0.085928	0.178714	4458.803223
4954.806696	0.085847	0.178714	4541.130859
4954.807552	0.085884	0.178714	4614.647461
4954.808631	0.086085	0.178714	4707.533203
4954.809669	0.085920	0.178714	4796.718750
4955.807690	1.044983	0.192434	453.522583
4955.808555	1.516571	0.192434	1765.356567
4955.809615	1.507159	0.192434	3362.945312
4955.810501	0.786658	0.192434	4059.924072
4955.811371	0.094373	0.192434	4142.028320
4955.812318	0.085862	0.192434	4223.339355
4955.813286	0.085880	0.192434	4306.471191
4955.814167	0.085920	0.192434	4382.166992
4955.815057	0.086034	0.192434	4458.737305
4955.816156	0.085942	0.192434	4553.187988
4955.817048	0.085917	0.192434	4629.825684
4955.817912	0.085906	0.192434	4704.048340
4955.818966	0.086049	0.192434	4794.743652
4955.819937	0.085950	0.192434	4878.200684
4956.853189	1.031316	0.178774	444.497162
4956.854059	1.516783	0.178774	1764.098877
4956.855068	1.508265	0.178774	3285.938477
4956.856130	0.611876	0.178774	3935.750977
4956.857027	0.088495	0.178774	4015.130859
4956.857952	0.085873	0.178774	4094.563232
4956.859013	0.085994	0.178774	4185.802734
4956.859963	0.085920	0.178774	4267.427246
4956.860826	0.085917	0.178774	4341.573242
4956.861872	0.086034	0.178774	4431.564941
4956.862889	0.086019	0.178774	4519.046387
4956.863780	0.086016	0.178774	4595.686523
4956.864722	0.086027	0.178774	4676.723633
4956.865762	0.085968	0.178774	4766.130371
4957.863894	1.057566	0.194114	449.465454
4957.864934	1.519475	0.194114	2029.719604
4957.866010	1.499055	0.194114	3642.703125
4957.866898	0.488390	0.194114	4076.393311
4957.867805	0.088070	0.194114	4156.272949
4957.868876	0.086012	0.194114	4248.391602
4957.869823	0.085909	0.194114	4329.748047
4957.870690	0.085939	0.194114	4404.256836
4957.871716	0.086100	0.194114	4492.595215
4957.872738	0.085876	0.194114	4580.360840
4957.873625	0.085891	0.194114	4656.546387
4957.874558	0.086045	0.194114	4736.826172
4957.875618	0.085968	0.194114	4827.952148
4957.876562	0.085869	0.194114	4909.012695
