time (s)	coil I (A)	last det (V)	int current (uC)
7882.285637	1.134038	0.443016	615.782654
7882.286717	1.535874	0.443016	2274.526611
7882.287630	1.510265	0.443016	3653.398437
7882.288500	1.470817	0.443016	4933.008789
7882.289597	1.426406	0.443016	6497.776367
7882.290571	1.387112	0.443016	7848.823242
7882.291458	1.353358	0.443016	9049.251953
7882.292476	1.316514	0.443016	10389.462891
7882.293522	0.485032	0.443016	10896.805664
7882.294406	0.086158	0.443016	10972.969727
7882.295287	0.084789	0.443016	11047.668945
7882.296361	0.084888	0.443016	11138.837891
7882.297320	0.084771	0.443016	11220.132812
7882.298183	0.084884	0.443016	11293.387695
7882.299206	0.084943	0.443016	11380.284180
7882.300246	0.084803	0.443016	11468.479492
7882.301123	0.084899	0.443016	11542.935547
7882.302032	0.084880	0.443016	11620.091797
7882.303096	0.084899	0.443016	11710.423828
7883.414462	1.034326	0.386511	438.554260
7883.415419	1.526455	0.386511	1899.371826
7883.416467	1.515253	0.386511	3487.356689
7883.417395	1.474710	0.386511	4855.887207
7883.418269	1.437246	0.386511	6112.040039
7883.419344	1.394535	0.386511	7611.165039
7883.420349	1.355574	0.386511	8973.516602
7883.421248	1.322677	0.386511	10162.603516
7883.422226	0.756431	0.386511	10902.392578
7883.423292	0.088436	0.386511	10996.666016
7883.424201	0.084844	0.386511	11073.789062
7883.425060	0.084884	0.386511	11146.704102
7883.426153	0.084979	0.386511	11239.585937
7883.427136	0.084910	0.386511	11323.051758
7883.428002	0.084851	0.386511	11396.533203
7883.429097	0.084924	0.386511	11489.525391
7883.430125	0.084976	0.386511	11576.879883
7883.431015	0.084833	0.386511	11652.380859
7883.431938	0.084884	0.386511	11730.728516
7884.323791	1.044192	0.458280	459.444397
7884.324656	1.526272	0.458280	1779.669678
7884.325697	1.518919	0.458280	3360.863770
7884.326734	1.473999	0.458280	4889.400879
7884.327624	1.436276	0.458280	6167.686523
7884.328561	1.398607	0.458280	7478.181641
7884.329619	1.357775	0.458280	8914.707031
7884.330567	1.322501	0.458280	10168.438477
7884.331438	0.891969	0.458280	10945.343750
7884.332502	0.094611	0.458280	11046.009766
7884.333510	0.084844	0.458280	11131.532227
7884.334375	0.084840	0.458280	11204.918945
7884.335339	0.084943	0.458280	11286.803711
7884.336392	0.084888	0.458280	11376.190430
7884.337314	0.084891	0.458280	11454.459961
7884.338180	0.084866	0.458280	11527.954102
7884.339234	0.084954	0.458280	11617.495117
7884.340243	0.084884	0.458280	11703.143555
7884.341139	0.084847	0.458280	11779.166992
7885.444042	1.049894	0.389814	456.703766
7885.444904	1.526349	0.389814	1772.416504
7885.446010	1.516736	0.389814	3449.926270
7885.446974	1.474658	0.389814	4871.496582
7885.447839	1.438048	0.389814	6115.408203
7885.448909	1.395201	0.389814	7608.273437
7885.449957	1.355094	0.389814	9028.412109
7885.450845	1.321831	0.389814	10202.198242
7885.451779	0.773093	0.389814	10924.267578
7885.452842	0.089227	0.389814	11019.116211
7885.453772	0.084862	0.389814	11098.038086
7885.454633	0.084752	0.389814	11171.009766
7885.455666	0.084990	0.389814	11258.804687
7885.456695	0.084851	0.389814	11346.116211
7885.457583	0.084910	0.389814	11421.515625
7885.458542	0.084873	0.389814	11502.909180
7885.459605	0.084891	0.389814	11593.148437
7885.460535	0.084873	0.389814	11672.080078
7885.461402	0.084906	0.389814	11745.693359
7886.361026	1.035813	0.470026	443.327942
7886.362045	1.529506	0.470026	2001.894043
7886.363101	1.513235	0.470026	3599.870117
7886.363986	1.473420	0.470026	4903.847168
7886.364871	1.435250	0.470026	6174.043945
7886.365978	1.391986	0.470026	7714.972656
7886.366929	1.355248	0.470026	9003.813477
7886.367793	1.323098	0.470026	10146.970703
7886.368825	0.722069	0.470026	10892.146484
7886.369854	0.088499	0.470026	10983.211914
7886.370728	0.084803	0.470026	11057.330078
7886.371638	0.084891	0.470026	11134.581055
7886.372704	0.084968	0.470026	11225.157227
7886.373648	0.084781	0.470026	11305.191406
7886.374514	0.084825	0.470026	11378.650391
7886.375546	0.084979	0.470026	11466.348633
7886.376570	0.084910	0.470026	11553.295898
7886.377458	0.084840	0.470026	11628.633789
7886.378409	0.085027	0.470026	11709.494141
7887.475724	1.104023	0.398427	554.219788
7887.476701	1.535493	0.398427	2054.396484
7887.477584	1.518168	0.398427	3394.938477
7887.478567	1.475343	0.398427	4845.200684
7887.479626	1.431650	0.398427	6361.318359
7887.480527	1.394333	0.398427	7617.612793
7887.481395	1.359368	0.398427	8797.543945
7887.482490	1.320385	0.398427	10243.365234
7887.483459	0.708050	0.398427	10929.465820
7887.484322	0.092351	0.398427	11009.165039
7887.485356	0.084902	0.398427	11096.954102
7887.486385	0.084807	0.398427	11184.220703
7887.487266	0.084811	0.398427	11258.939453
7887.488178	0.084840	0.398427	11336.313477
7887.489235	0.084972	0.398427	11426.128906
7887.490183	0.084847	0.398427	11506.564453
7887.491040	0.084858	0.398427	11579.288086
7887.492058	0.084943	0.398427	11665.759766
7887.493096	0.084910	0.398427	11753.896484
7888.395214	1.047067	0.469547	454.426941
7888.396145	1.526759	0.469547	1875.839600
7888.397059	1.520629	0.469547	3265.694092
7888.397968	1.481122	0.469547	4612.033691
7888.398863	1.443713	0.469547	5904.157227
7888.399822	1.404661	0.469547	7251.226562
7888.400758	1.368149	0.469547	8531.814453
7888.401636	1.335249	0.469547	9704.163086
7888.402586	1.153198	0.469547	10799.701172
7888.403551	0.159177	0.469547	10953.307617
7888.404477	0.084767	0.469547	11031.801758
7888.405357	0.084899	0.469547	11106.512695
7888.406310	0.084994	0.469547	11187.511719
7888.407233	0.084869	0.469547	11265.845703
7888.408117	0.084976	0.469547	11340.963867
7888.408989	0.084844	0.469547	11414.947266
7888.410011	0.084822	0.469547	11501.634766
7888.410924	0.084818	0.469547	11579.073242
7888.411811	0.084818	0.469547	11654.306641
7889.507257	1.027383	0.405859	431.500793
7889.508232	1.526814	0.405859	1920.144531
7889.509289	1.514451	0.405859	3520.918945
7889.510207	1.474058	0.405859	4874.104004
7889.511075	1.436440	0.405859	6120.934082
7889.512173	1.393140	0.405859	7650.601562
7889.513174	1.354644	0.405859	9006.599609
7889.514071	1.321754	0.405859	10192.212891
7889.515077	0.703846	0.405859	10900.282227
7889.516116	0.087979	0.405859	10991.692383
7889.516996	0.084814	0.405859	11066.329102
7889.517875	0.084840	0.405859	11140.903320
7889.518949	0.084943	0.405859	11232.131836
7889.519907	0.084866	0.405859	11313.433594
7889.520766	0.084884	0.405859	11386.348633
7889.521814	0.084976	0.405859	11475.403320
7889.522856	0.084785	0.405859	11563.749023
7889.523735	0.084847	0.405859	11638.330078
7889.524649	0.084862	0.405859	11715.893555
7890.430904	1.037450	0.483666	438.841339
7890.431980	1.533494	0.483666	2088.880615
7890.432974	1.512415	0.483666	3592.220703
7890.433863	1.473450	0.483666	4902.117187
7890.434861	1.432467	0.483666	6331.719238
7890.435914	1.389873	0.483666	7795.255371
7890.436825	1.354464	0.483666	9029.171875
7890.437689	1.321278	0.483666	10170.755859
7890.438786	0.630992	0.483666	10862.954102
7890.439773	0.086741	0.483666	10948.567383
7890.440648	0.084705	0.483666	11022.683594
7890.441634	0.084844	0.483666	11106.339844
7890.442692	0.084829	0.483666	11196.088867
7890.443559	0.084796	0.483666	11269.607422
7890.444424	0.084873	0.483666	11343.022461
7890.445524	0.084932	0.483666	11436.447266
7890.446483	0.084792	0.483666	11517.763672
7890.447350	0.084829	0.483666	11591.310547
7890.448367	0.084895	0.483666	11677.648437
7891.541552	1.147064	0.413863	621.708801
7891.542610	1.536247	0.413863	2247.058594
7891.543504	1.512521	0.413863	3599.252197
7891.544418	1.471974	0.413863	4944.636230
7891.545505	1.427179	0.413863	6495.979492
7891.546461	1.388958	0.413863	7823.822754
7891.547339	1.355006	0.413863	9013.517578
7891.548381	1.316766	0.413863	10385.587891
7891.549401	0.502991	0.413863	10898.638672
7891.550289	0.086744	0.413863	10975.667969
7891.551237	0.084899	0.413863	11056.152344
7891.552268	0.084924	0.413863	11143.708984
7891.553194	0.084789	0.413863	11222.223633
7891.554055	0.084800	0.413863	11295.236328
7891.555112	0.084943	0.413863	11385.020508
7891.556127	0.084811	0.413863	11471.103516
7891.557005	0.084792	0.413863	11545.551758
7891.557961	0.084910	0.413863	11626.725586
7891.559017	0.084792	0.413863	11716.266602
7892.463060	1.048780	0.492126	461.463379
7892.463928	1.526451	0.492126	1786.423218
7892.464987	1.517333	0.492126	3393.278809
7892.466014	1.473003	0.492126	4906.052734
7892.466895	1.435642	0.492126	6170.853516
7892.467856	1.396996	0.492126	7513.366699
7892.468928	1.355742	0.492126	8966.722656
7892.469843	1.321381	0.492126	10175.786133
7892.470718	0.861324	0.492126	10929.445312
7892.471761	0.092516	0.492126	11025.939453
7892.472761	0.084741	0.492126	11110.680664
7892.473648	0.084781	0.492126	11185.881836
7892.474621	0.084840	0.492126	11268.431641
7892.475670	0.084906	0.492126	11357.498047
7892.476584	0.084796	0.492126	11435.001953
7892.477451	0.084840	0.492126	11508.558594
7892.478534	0.084873	0.492126	11600.476562
7892.479512	0.084694	0.492126	11683.306641
7892.480404	0.084781	0.492126	11758.931641
7893.577744	1.086552	0.415398	555.227844
7893.578802	1.535101	0.415398	2179.364990
7893.579737	1.512155	0.415398	3593.229492
7893.580605	1.472842	0.415398	4871.656250
7893.581694	1.428424	0.415398	6427.209961
7893.582684	1.388459	0.415398	7801.784668
7893.583568	1.354845	0.415398	8999.467773
7893.584547	1.318949	0.415398	10290.718750
7893.585603	0.551938	0.415398	10873.565430
7893.586501	0.086975	0.415398	10951.668945
7893.587359	0.084781	0.415398	11024.411133
7893.588433	0.084895	0.415398	11115.587891
7893.589410	0.084738	0.415398	11198.376953
7893.590285	0.084781	0.415398	11272.560547
7893.591271	0.084866	0.415398	11356.238281
7893.592326	0.084814	0.415398	11445.717773
7893.593227	0.084862	0.415398	11522.178711
7893.594091	0.084825	0.415398	11595.467773
7893.595186	0.084921	0.415398	11688.456055
7894.493625	1.024911	0.500593	432.512360
7894.494633	1.529670	0.500593	1974.420044
7894.495672	1.513850	0.500593	3547.310303
7894.496570	1.473809	0.500593	4870.790527
7894.497497	1.435042	0.500593	6201.074219
7894.498572	1.391752	0.500593	7697.207031
7894.499519	1.355526	0.500593	8980.890625
7894.500383	1.323234	0.500593	10124.164062
7894.501446	0.712372	0.500593	10881.415039
7894.502457	0.088158	0.500593	10970.542969
7894.503341	0.084781	0.500593	11045.490234
7894.504316	0.084866	0.500593	11128.234375
7894.505363	0.084895	0.500593	11217.119141
7894.506287	0.084771	0.500593	11295.447266
7894.507142	0.084796	0.500593	11367.948242
7894.508184	0.084928	0.500593	11456.443359
7894.509194	0.084792	0.500593	11542.083984
7894.510079	0.084800	0.500593	11617.131836
7894.511031	0.084851	0.500593	11697.910156
7895.613888	1.056376	0.419834	452.128815
7895.614982	1.533783	0.419834	2130.087402
7895.615954	1.512839	0.419834	3600.567383
7895.616819	1.474325	0.419834	4875.858398
7895.617877	1.430413	0.419834	6389.234863
7895.618917	1.388958	0.419834	7833.750488
7895.619803	1.354358	0.419834	9033.711914
7895.620736	1.319949	0.419834	10265.224609
7895.621803	0.589149	0.419834	10893.846680
7895.622746	0.086741	0.419834	10975.643555
7895.623603	0.084745	0.419834	11048.269531
7895.624636	0.084822	0.419834	11135.890625
7895.625664	0.084771	0.419834	11223.035156
7895.626556	0.084705	0.419834	11298.591797
7895.627504	0.084924	0.419834	11379.099609
7895.628548	0.084836	0.419834	11467.668945
7895.629483	0.084690	0.419834	11546.854492
7895.630346	0.084836	0.419834	11620.068359
7895.631404	0.084888	0.419834	11709.879883
7896.525782	1.066029	0.512038	473.316895
7896.526660	1.527363	0.512038	1814.341919
7896.527683	1.518420	0.512038	3367.686035
7896.528742	1.473168	0.512038	4927.770508
7896.529626	1.435107	0.512038	6196.405273
7896.530494	1.398080	0.512038	7409.938477
7896.531599	1.357093	0.512038	8909.526367
7896.532562	1.321670	0.512038	10182.294922
7896.533437	0.879910	0.512038	10952.215820
7896.534441	0.096097	0.512038	11048.697266
7896.535476	0.084818	0.512038	11136.484375
7896.536363	0.084807	0.512038	11211.708008
7896.537253	0.084880	0.512038	11287.251953
7896.538344	0.084891	0.512038	11379.868164
7896.539287	0.084789	0.512038	11459.824219
7896.540155	0.084705	0.512038	11533.347656
7896.541196	0.084855	0.512038	11621.681641
7896.542219	0.084814	0.512038	11708.447266
7896.543120	0.084789	0.512038	11784.841797
7897.649607	1.034872	0.423656	448.099487
7897.650483	1.527103	0.423656	1785.842041
7897.651417	1.522024	0.423656	3207.412354
7897.652431	1.478987	0.423656	4707.104980
7897.653351	1.440322	0.423656	6032.201660
7897.654221	1.404481	0.423656	7254.100098
7897.655264	1.364879	0.423656	8677.668945
7897.656156	1.330913	0.423656	9864.843750
7897.657025	1.155432	0.423656	10868.914062
7897.657890	0.176155	0.423656	11021.288086
7897.658946	0.084679	0.423656	11110.708984
7897.659833	0.084694	0.423656	11185.832031
7897.660704	0.084730	0.423656	11259.631836
7897.661686	0.084858	0.423656	11342.962891
7897.662627	0.084789	0.423656	11422.749023
7897.663550	0.084749	0.423656	11500.971680
7897.664416	0.084785	0.423656	11574.395508
7897.665446	0.084756	0.423656	11661.694336
7897.666319	0.084727	0.423656	11735.660156
7898.557506	1.154612	0.526648	638.500244
7898.558564	1.535797	0.526648	2263.373535
7898.559457	1.511631	0.526648	3613.259766
7898.560334	1.471615	0.526648	4903.866211
7898.561428	1.427644	0.526648	6465.708984
7898.562384	1.389284	0.526648	7793.864258
7898.563253	1.355706	0.526648	8971.972656
7898.564283	1.317971	0.526648	10329.483398
7898.565317	0.547705	0.526648	10895.810547
7898.566201	0.087290	0.526648	10972.974609
7898.567138	0.084833	0.526648	11052.462891
7898.568193	0.084847	0.526648	11141.976562
7898.569129	0.084723	0.526648	11221.277344
7898.569988	0.084741	0.526648	11294.070312
7898.571011	0.084862	0.526648	11380.883789
7898.572035	0.084741	0.526648	11467.659180
7898.572922	0.084745	0.526648	11542.828125
7898.573864	0.084939	0.526648	11622.840820
7898.574918	0.084917	0.526648	11712.343750
7899.682245	1.036344	0.433216	449.773315
7899.683115	1.526169	0.433216	1777.540649
7899.684137	1.518896	0.433216	3329.852783
7899.685188	1.473673	0.433216	4878.683105
7899.686083	1.435902	0.433216	6163.815430
7899.687026	1.397981	0.433216	7482.111328
7899.688091	1.356647	0.433216	8926.940430
7899.689043	1.321578	0.433216	10185.083008
7899.689919	0.862606	0.433216	10940.726562
7899.690970	0.092391	0.433216	11037.830078
7899.691973	0.084741	0.433216	11122.825195
7899.692858	0.084763	0.433216	11197.840820
7899.693824	0.084877	0.433216	11279.832031
7899.694862	0.084763	0.433216	11367.816406
7899.695780	0.084752	0.433216	11445.619141
7899.696638	0.084906	0.433216	11518.468750
7899.697713	0.084987	0.433216	11609.829102
7899.698717	0.084745	0.433216	11694.913086
7899.699583	0.084771	0.433216	11768.324219
7900.594618	1.037564	0.538359	439.926941
7900.595602	1.530685	0.538359	1946.120850
7900.596536	1.518809	0.538359	3364.687988
7900.597399	1.480459	0.538359	4642.324219
7900.598410	1.438136	0.538359	6096.279785
7900.599315	1.401108	0.538359	7364.282715
7900.600228	1.365934	0.538359	8611.380859
7900.601110	1.332693	0.538359	9786.816406
7900.602066	1.112926	0.538359	10850.773437
7900.603012	0.142152	0.538359	10985.249023
7900.603901	0.084668	0.538359	11060.518555
7900.604893	0.084833	0.538359	11144.672852
7900.605799	0.084789	0.538359	11221.491211
7900.606721	0.084756	0.538359	11299.635742
7900.607583	0.084833	0.538359	11372.761719
7900.608610	0.084906	0.538359	11459.959961
7900.609480	0.084866	0.538359	11533.792969
7900.610352	0.084785	0.538359	11607.725586
7900.611328	0.084877	0.538359	11690.565430
7901.711393	1.125531	0.436619	578.522888
7901.712307	1.533636	0.436619	1980.266602
7901.713171	1.518889	0.436619	3292.586914
7901.714263	1.472900	0.436619	4900.994141
7901.715259	1.430929	0.436619	6326.199219
7901.716144	1.395443	0.436619	7561.166504
7901.717162	1.356749	0.436619	8942.336914
7901.718217	1.318169	0.436619	10333.004883
7901.719108	0.706838	0.436619	10962.797852
7901.719979	0.092223	0.436619	11043.124023
7901.721077	0.084869	0.436619	11136.310547
7901.722036	0.084763	0.436619	11217.598633
7901.722894	0.084767	0.436619	11290.328125
7901.723922	0.084943	0.436619	11377.649414
7901.724964	0.084825	0.436619	11466.037109
7901.725850	0.084778	0.436619	11541.150391
7901.726771	0.084785	0.436619	11619.237305
7901.727828	0.084877	0.436619	11708.952148
7901.728779	0.084785	0.436619	11789.583008
7902.632379	1.027526	0.529935	432.588318
7902.633276	1.524646	0.529935	1800.195801
7902.634358	1.515883	0.529935	3440.380859
7902.635309	1.474501	0.529935	4842.630859
7902.636176	1.437938	0.529935	6089.323242
7902.637223	1.395787	0.529935	7550.712891
7902.638249	1.356335	0.529935	8942.312500
7902.639146	1.323215	0.529935	10129.236328
7902.640108	0.805748	0.529935	10904.366211
7902.641159	0.090923	0.529935	10999.925781
7902.642099	0.084796	0.529935	11079.633789
7902.642955	0.084844	0.529935	11152.259766
7902.643992	0.084906	0.529935	11240.307617
7902.645003	0.084767	0.529935	11326.006836
7902.645890	0.084767	0.529935	11401.195312
7902.646847	0.084884	0.529935	11482.429687
7902.647903	0.084818	0.529935	11571.998047
7902.648825	0.084814	0.529935	11650.197266
7902.649693	0.084822	0.529935	11723.822266
7903.735761	1.057654	0.446654	465.367676
7903.736637	1.527400	0.446654	1803.369995
7903.737586	1.521665	0.446654	3247.430176
7903.738561	1.479683	0.446654	4690.120605
7903.739490	1.440557	0.446654	6028.397461
7903.740352	1.404705	0.446654	7239.252930
7903.741407	1.365059	0.446654	8679.389648
7903.742284	1.331063	0.446654	9846.732422
7903.743164	1.160457	0.446654	10867.934570
7903.744081	0.177634	0.446654	11030.825195
7903.745094	0.084668	0.446654	11116.593750
7903.745987	0.084694	0.446654	11192.225586
7903.746863	0.084811	0.446654	11266.519531
7903.747862	0.084814	0.446654	11351.249023
7903.748768	0.084708	0.446654	11427.995117
7903.749687	0.084752	0.446654	11505.882812
7903.750548	0.084760	0.446654	11578.860352
7903.751582	0.084822	0.446654	11666.566406
7903.752472	0.084767	0.446654	11742.008789
7904.676283	1.025270	0.513911	431.638550
7904.677272	1.527696	0.513911	1942.530396
7904.678270	1.515527	0.513911	3455.026855
7904.679164	1.476420	0.513911	4774.945801
7904.680027	1.438466	0.513911	6016.341797
7904.681139	1.395593	0.513911	7568.241699
7904.682045	1.360137	0.513911	8800.525391
7904.682930	1.327456	0.513911	9975.324219
7904.683921	0.908148	0.513911	10875.298828
7904.684916	0.096460	0.513911	10971.276367
7904.685805	0.084701	0.513911	11046.575195
7904.686662	0.084829	0.513911	11119.273437
7904.687734	0.084880	0.513911	11210.265625
7904.688642	0.084745	0.513911	11287.213867
7904.689506	0.084785	0.513911	11360.467773
7904.690468	0.084877	0.513911	11442.119141
7904.691491	0.084774	0.513911	11528.842773
7904.692383	0.084767	0.513911	11604.455078
7904.693244	0.084836	0.513911	11677.499023
7905.760289	1.122539	0.459714	578.107605
7905.761307	1.535504	0.459714	2141.250977
7905.762199	1.514897	0.459714	3492.539551
7905.763154	1.473589	0.459714	4899.816895
7905.764219	1.428787	0.459714	6421.474609
7905.765153	1.391089	0.459714	7720.751465
7905.766017	1.357090	0.459714	8893.277344
7905.767084	1.318623	0.459714	10300.248047
7905.768085	0.591628	0.459714	10892.467773
7905.768970	0.088583	0.459714	10970.863281
7905.769951	0.084902	0.459714	11054.152344
7905.771001	0.084913	0.459714	11143.311523
7905.771910	0.084862	0.459714	11220.451172
7905.772767	0.084789	0.459714	11293.115234
7905.773845	0.084921	0.459714	11384.660156
7905.774826	0.084723	0.459714	11467.773437
7905.775693	0.084814	0.459714	11541.307617
7905.776669	0.084928	0.459714	11624.197266
7905.777721	0.084954	0.459714	11713.568359
7906.719159	1.026808	0.507719	433.312897
7906.720206	1.531381	0.507719	2036.668457
7906.721226	1.512686	0.507719	3579.607666
7906.722112	1.473406	0.507719	4885.045410
7906.723092	1.433405	0.507719	6289.781738
7906.724138	1.390532	0.507719	7744.278320
7906.725066	1.354918	0.507719	9001.642578
7906.725929	1.322021	0.507719	10142.546875
7906.727015	0.666204	0.507719	10866.043945
7906.728023	0.086927	0.507719	10953.666992
7906.728897	0.084774	0.507719	11027.759766
7906.729863	0.084833	0.507719	11109.708008
7906.730898	0.084792	0.507719	11197.467773
7906.731803	0.084716	0.507719	11274.135742
7906.732668	0.084771	0.507719	11347.461914
7906.733740	0.084855	0.507719	11438.425781
7906.734724	0.084760	0.507719	11521.829102
7906.735613	0.084756	0.507719	11597.176758
7906.736585	0.084869	0.507719	11679.669922
7907.785656	1.022578	0.477269	428.460236
7907.786568	1.524236	0.477269	1818.563354
7907.787648	1.515970	0.477269	3455.811523
7907.788551	1.476043	0.477269	4788.677734
7907.789419	1.439425	0.477269	6038.098633
7907.790457	1.397545	0.477269	7488.750488
7907.791435	1.359880	0.477269	8818.713867
7907.792312	1.327156	0.477269	9982.628906
7907.793185	0.975143	0.477269	10833.928711
7907.794307	0.101631	0.477269	10947.958984
7907.795179	0.084664	0.477269	11021.786133
7907.796038	0.084738	0.477269	11094.576172
7907.797084	0.084906	0.477269	11183.387695
7907.798052	0.084836	0.477269	11265.509766
7907.798916	0.084763	0.477269	11338.745117
7907.799778	0.084928	0.477269	11411.953125
7907.800892	0.084844	0.477269	11506.468750
7907.801802	0.084752	0.477269	11583.592773
7907.802667	0.084789	0.477269	11656.935547
7908.760673	1.171681	0.512364	693.635132
7908.761600	1.535164	0.512364	2116.731689
7908.762529	1.514304	0.512364	3523.520508
7908.763395	1.474922	0.512364	4800.802734
7908.764433	1.432826	0.512364	6288.076172
7908.765313	1.396659	0.512364	7517.136230
7908.766193	1.362821	0.512364	8716.418945
7908.767171	1.326980	0.512364	10014.205078
7908.768118	0.953258	0.512364	10916.940430
7908.769033	0.108530	0.512364	11016.246094
7908.769907	0.084727	0.512364	11090.296875
7908.770930	0.084866	0.512364	11177.114258
7908.771821	0.084785	0.512364	11252.658203
7908.772691	0.084811	0.512364	11326.443359
7908.773621	0.084866	0.512364	11405.368164
7908.774616	0.084712	0.512364	11489.656250
7908.775528	0.084719	0.512364	11566.919922
7908.776392	0.084694	0.512364	11640.094727
7908.777384	0.084822	0.512364	11724.238281
7909.812667	1.033176	0.500368	438.066742
7909.813729	1.531919	0.500368	2064.964600
7909.814666	1.515319	0.500368	3484.818115
7909.815540	1.476760	0.500368	4775.506836
7909.816487	1.437037	0.500368	6136.381348
7909.817553	1.394546	0.500368	7622.967285
7909.818430	1.360008	0.500368	8815.694336
7909.819300	1.327416	0.500368	9970.545898
7909.820337	0.861306	0.500368	10863.720703
7909.821285	0.096636	0.500368	10955.331055
7909.822161	0.084705	0.500368	11029.532227
7909.823093	0.084855	0.500368	11108.617187
7909.824151	0.084844	0.500368	11198.381836
7909.825040	0.084767	0.500368	11273.739258
7909.825900	0.084825	0.500368	11346.689453
7909.826940	0.084935	0.500368	11435.022461
7909.827902	0.084792	0.500368	11516.592773
7909.828771	0.084807	0.500368	11590.290039
7909.829659	0.084866	0.500368	11665.650391
7910.796822	1.113523	0.515607	563.442566
7910.797773	1.534449	0.515607	2022.704102
7910.798646	1.518603	0.515607	3348.444824
7910.799675	1.473567	0.515607	4864.745117
7910.800717	1.430563	0.515607	6355.391602
7910.801611	1.394066	0.515607	7601.686523
7910.802532	1.358350	0.515607	8852.726562
7910.803611	1.318400	0.515607	10275.279297
7910.804574	0.665420	0.515607	10916.079102
7910.805437	0.090487	0.515607	10994.169922
7910.806479	0.084939	0.515607	11082.676758
7910.807502	0.084789	0.515607	11169.416016
7910.808389	0.084756	0.515607	11244.594727
7910.809347	0.084873	0.515607	11325.903320
7910.810390	0.084976	0.515607	11414.533203
7910.811322	0.084727	0.515607	11493.498047
7910.812185	0.084844	0.515607	11566.717773
7910.813255	0.084913	0.515607	11657.575195
7910.814246	0.084836	0.515607	11741.648437
7911.845341	1.062188	0.511901	476.922211
7911.846211	1.527275	0.511901	1805.651855
7911.847254	1.518080	0.511901	3389.009033
7911.848143	1.478474	0.511901	4703.372559
7911.849019	1.441556	0.511901	5966.175781
7911.849922	1.403793	0.511901	7233.800781
7911.850955	1.364513	0.511901	8643.342773
7911.851842	1.331173	0.511901	9824.093750
7911.852718	1.174058	0.511901	10852.568359
7911.853726	0.157954	0.511901	11011.786133
7911.854650	0.084781	0.511901	11090.124023
7911.855571	0.084833	0.511901	11168.254883
7911.856432	0.084880	0.511901	11241.336914
7911.857469	0.084763	0.511901	11329.236328
7911.858355	0.084880	0.511901	11404.440430
7911.859230	0.084836	0.511901	11478.671875
7911.860216	0.084899	0.511901	11562.381836
7911.861157	0.084811	0.511901	11642.188477
7911.862078	0.084803	0.511901	11720.291992
7912.829503	1.153762	0.531204	627.646667
7912.830547	1.535684	0.531204	2230.900146
7912.831431	1.512616	0.531204	3568.052734
7912.832360	1.471758	0.531204	4935.315430
7912.833437	1.427267	0.531204	6472.481934
7912.834366	1.389536	0.531204	7763.360840
7912.835233	1.356149	0.531204	8939.141602
7912.836256	1.318367	0.531204	10287.831055
7912.837290	0.565232	0.531204	10872.281250
7912.838181	0.087477	0.531204	10950.222656
7912.839144	0.084891	0.531204	11031.972656
7912.840193	0.084917	0.531204	11121.050781
7912.841114	0.084803	0.531204	11199.154297
7912.841975	0.084741	0.531204	11272.116211
7912.843033	0.084895	0.531204	11361.935547
7912.844027	0.084877	0.531204	11446.302734
7912.844922	0.084833	0.531204	11522.228516
7912.845887	0.084965	0.531204	11604.219727
7912.846930	0.084877	0.531204	11692.746094
7913.881028	1.036655	0.510515	445.761780
7913.881900	1.526067	0.510515	1776.492187
7913.882870	1.521357	0.510515	3252.208984
7913.883898	1.476852	0.510515	4770.412598
7913.884784	1.439392	0.510515	6045.713867
7913.885653	1.403225	0.510515	7265.116211
7913.886731	1.362294	0.510515	8733.668945
7913.887665	1.327471	0.510515	9973.526367
7913.888542	1.062169	0.510515	10905.048828
7913.889523	0.137102	0.510515	11039.545898
7913.890547	0.084873	0.510515	11126.456055
7913.891424	0.084818	0.510515	11200.841797
7913.892283	0.084851	0.510515	11273.728516
7913.893322	0.084983	0.510515	11362.025391
7913.894269	0.084814	0.510515	11442.344727
7913.895134	0.084840	0.510515	11515.731445
7913.896169	0.085001	0.510515	11603.708008
7913.897184	0.084895	0.510515	11689.875977
7913.898077	0.084807	0.510515	11765.608398
7914.857930	1.043240	0.536469	452.766022
7914.858891	1.526125	0.536469	1919.372559
7914.859939	1.514132	0.536469	3506.182861
7914.860875	1.473325	0.536469	4885.215332
7914.861738	1.436254	0.536469	6124.702148
7914.862820	1.393575	0.536469	7632.550781
7914.863830	1.354424	0.536469	9000.518555
7914.864705	1.321695	0.536469	10157.001953
7914.865692	0.746023	0.536469	10893.326172
7914.866761	0.088173	0.536469	10987.583008
7914.867663	0.084778	0.536469	11064.052734
7914.868536	0.084906	0.536469	11138.175781
7914.869618	0.084880	0.536469	11230.016602
7914.870609	0.084818	0.536469	11314.071289
7914.871501	0.084807	0.536469	11389.719727
7914.872494	0.084928	0.536469	11474.052734
7914.873554	0.084921	0.536469	11564.068359
7914.874445	0.084862	0.536469	11639.680664
7914.875312	0.084866	0.536469	11713.258789
7915.918879	1.088914	0.497810	572.768555
7915.919937	1.534863	0.497810	2196.653809
7915.920853	1.512133	0.497810	3581.767090
7915.921716	1.472750	0.497810	4852.750488
7915.922793	1.428743	0.497810	6391.506348
7915.923788	1.388738	0.497810	7773.300293
7915.924678	1.354871	0.497810	8979.134766
7915.925670	1.318429	0.497810	10287.016602
7915.926734	0.533529	0.497810	10854.691406
7915.927635	0.086576	0.497810	10932.696289
7915.928498	0.084855	0.497810	11005.925781
7915.929597	0.084869	0.497810	11099.197266
7915.930570	0.084833	0.497810	11181.739258
7915.931432	0.084785	0.497810	11254.824219
7915.932517	0.084965	0.497810	11347.010742
7915.933552	0.084946	0.497810	11434.929687
7915.934442	0.084785	0.497810	11510.388672
7915.935367	0.084829	0.497810	11588.855469
7915.936425	0.084836	0.497810	11678.612305
7916.886561	1.114230	0.538508	572.714050
7916.887461	1.532948	0.538508	1952.367187
7916.888327	1.519464	0.538508	3268.223145
7916.889421	1.473355	0.538508	4880.073242
7916.890416	1.431434	0.538508	6304.350586
7916.891301	1.395831	0.538508	7539.661133
7916.892301	1.357808	0.538508	8897.468750
7916.893366	1.318975	0.538508	10302.176758
7916.894256	0.735842	0.538508	10957.076172
7916.895122	0.093776	0.538508	11038.286133
7916.896240	0.085031	0.538508	11133.350586
7916.897182	0.084789	0.538508	11213.221680
7916.898046	0.084873	0.538508	11286.551758
7916.899056	0.084946	0.538508	11372.347656
7916.900100	0.084968	0.538508	11461.054687
7916.900988	0.084902	0.538508	11536.448242
7916.901896	0.084917	0.538508	11613.552734
7916.902973	0.084913	0.538508	11705.003906
7916.903923	0.084771	0.538508	11785.536133
7917.956637	1.111157	0.486297	562.245605
7917.957517	1.531571	0.486297	1910.028076
7917.958385	1.521764	0.486297	3230.919189
7917.959428	1.476995	0.486297	4771.424805
7917.960390	1.436342	0.486297	6153.185547
7917.961260	1.400581	0.486297	7371.690918
7917.962145	1.364952	0.486297	8579.673828
7917.963234	1.325764	0.486297	10023.430664
7917.964151	0.973308	0.486297	10915.954102
7917.965014	0.119008	0.486297	11018.657227
7917.966042	0.084833	0.486297	11105.865234
7917.967028	0.084814	0.486297	11189.492187
7917.967911	0.084807	0.486297	11264.376953
7917.968774	0.084855	0.486297	11337.606445
7917.969878	0.084829	0.486297	11431.257812
7917.970777	0.084734	0.486297	11507.433594
7917.971649	0.084844	0.486297	11581.416992
7917.972656	0.084869	0.486297	11666.880859
7917.973630	0.084807	0.486297	11749.483398
7918.915619	1.120485	0.546484	574.808594
7918.916646	1.535171	0.546484	2151.428955
7918.917536	1.514703	0.546484	3499.515137
7918.918473	1.473230	0.546484	4879.931641
7918.919550	1.428717	0.546484	6418.660156
7918.920472	1.391111	0.546484	7701.264648
7918.921343	1.357061	0.546484	8883.264648
7918.922386	1.318890	0.546484	10258.867187
7918.923399	0.610862	0.546484	10877.669922
7918.924281	0.088671	0.546484	10955.876953
7918.925246	0.084877	0.546484	11037.783203
7918.926285	0.084902	0.546484	11125.997070
7918.927216	0.084818	0.546484	11204.962891
7918.928075	0.084866	0.546484	11277.862305
7918.929152	0.084869	0.546484	11369.266602
7918.930151	0.084803	0.546484	11453.985352
7918.931042	0.084851	0.546484	11529.587891
7918.932009	0.085005	0.546484	11611.788086
7918.933057	0.084891	0.546484	11700.753906
7919.994294	1.025852	0.479710	433.935425
7919.995285	1.527352	0.479710	1947.541626
7919.996353	1.512971	0.479710	3563.394775
7919.997257	1.472802	0.479710	4894.807617
7919.998125	1.434745	0.479710	6140.166016
7919.999244	1.391495	0.479710	7697.249023
7920.000217	1.354391	0.479710	9015.071289
7920.001091	1.321948	0.479710	10170.454102
7920.002140	0.666013	0.479710	10869.101562
7920.003160	0.087429	0.479710	10958.279297
7920.004044	0.084869	0.479710	11033.303711
7920.004963	0.085020	0.479710	11111.436523
7920.006021	0.084888	0.479710	11201.248047
7920.006966	0.084906	0.479710	11281.484375
7920.007829	0.084884	0.479710	11354.739258
7920.008864	0.084932	0.479710	11442.643555
7920.009884	0.084844	0.479710	11529.184570
7920.010754	0.084767	0.479710	11602.931641
7920.011691	0.084961	0.479710	11682.540039
7920.944568	1.039698	0.554186	438.752747
7920.945672	1.533263	0.554186	2131.475098
7920.946671	1.510100	0.554186	3640.064941
7920.947569	1.471168	0.554186	4961.173828
7920.948556	1.430127	0.554186	6372.708984
7920.949619	1.387808	0.554186	7847.948242
7920.950523	1.352666	0.554186	9070.757812
7920.951411	1.318641	0.554186	10241.710937
7920.952516	0.545651	0.554186	10844.655273
7920.953479	0.086085	0.554186	10927.555664
7920.954343	0.084851	0.554186	11000.867187
7920.955376	0.084899	0.554186	11088.567383
7920.956404	0.084851	0.554186	11175.793945
7920.957285	0.084840	0.554186	11250.538086
7920.958200	0.084851	0.554186	11328.176758
7920.959245	0.084877	0.554186	11416.873047
7920.960178	0.084796	0.554186	11495.988281
7920.961037	0.084822	0.554186	11568.850586
7920.962080	0.085005	0.554186	11657.510742
7922.031556	1.039874	0.472254	448.185791
7922.032557	1.527693	0.472254	1977.406250
7922.033507	1.516776	0.472254	3418.343506
7922.034430	1.476683	0.472254	4781.322266
7922.035301	1.439476	0.472254	6035.106445
7922.036341	1.398457	0.472254	7489.501953
7922.037219	1.363330	0.472254	8686.505859
7922.038097	1.330829	0.472254	9854.973633
7922.039044	1.035883	0.472254	10835.954102
7922.040018	0.120066	0.472254	10952.898437
7922.040931	0.084679	0.472254	11030.209961
7922.041808	0.084847	0.472254	11104.621094
7922.042871	0.084965	0.472254	11194.938477
7922.043762	0.084752	0.472254	11270.453125
7922.044636	0.084771	0.472254	11344.542969
7922.045522	0.084906	0.472254	11419.769531
7922.046547	0.084796	0.472254	11506.685547
7922.047425	0.084708	0.472254	11581.059570
7922.048289	0.084825	0.472254	11654.348633
7922.974731	1.080154	0.563749	546.557861
7922.975781	1.534332	0.563749	2157.606689
7922.976718	1.512041	0.563749	3574.389160
7922.977585	1.473296	0.563749	4851.736816
7922.978651	1.429394	0.563749	6375.471191
7922.979658	1.388917	0.563749	7774.110840
7922.980546	1.354790	0.563749	8977.164062
7922.981522	1.319594	0.563749	10265.087891
7922.982583	0.570743	0.563749	10870.646484
7922.983490	0.086990	0.563749	10949.545898
7922.984344	0.084800	0.563749	11021.964844
7922.985419	0.084895	0.563749	11113.226562
7922.986406	0.084800	0.563749	11196.923828
7922.987279	0.084738	0.563749	11270.899414
7922.988266	0.084822	0.563749	11354.618164
7922.989313	0.084822	0.563749	11443.426758
7922.990221	0.084774	0.563749	11520.401367
7922.991090	0.084811	0.563749	11594.101562
7922.992164	0.084899	0.563749	11685.283203
7924.065803	1.102086	0.473636	551.043091
7924.066710	1.532285	0.473636	1940.825684
7924.067572	1.520083	0.473636	3251.137207
7924.068668	1.474109	0.473636	4866.760742
7924.069664	1.431929	0.473636	6292.961914
7924.070541	1.396454	0.473636	7517.651855
7924.071530	1.358254	0.473636	8860.965820
7924.072604	1.318898	0.473636	10277.461914
7924.073507	0.742247	0.473636	10947.710937
7924.074369	0.093918	0.473636	11028.668945
7924.075465	0.084836	0.473636	11121.649414
7924.076439	0.084705	0.473636	11204.151367
7924.077301	0.084752	0.473636	11277.208008
7924.078342	0.084811	0.473636	11365.496094
7924.079372	0.084752	0.473636	11452.791016
7924.080263	0.084844	0.473636	11528.386719
7924.081173	0.084880	0.473636	11605.627930
7924.082250	0.084921	0.473636	11697.087891
7924.083209	0.084796	0.473636	11778.407227
7925.007899	1.087141	0.565099	563.139099
7925.008953	1.534248	0.565099	2180.236572
7925.009884	1.511704	0.565099	3587.633057
7925.010748	1.472684	0.565099	4860.032227
7925.011831	1.428776	0.565099	6407.396484
7925.012839	1.388002	0.565099	7806.501953
7925.013714	1.354080	0.565099	8991.321289
7925.014685	1.318535	0.565099	10271.619141
7925.015737	0.556047	0.565099	10856.581055
7925.016646	0.086781	0.565099	10935.464844
7925.017511	0.084822	0.565099	11008.835937
7925.018594	0.084921	0.565099	11100.804687
7925.019583	0.084752	0.565099	11184.625000
7925.020476	0.084727	0.565099	11260.286133
7925.021461	0.084877	0.565099	11343.889648
7925.022514	0.084760	0.565099	11433.141602
7925.023408	0.084774	0.565099	11508.929687
7925.024270	0.084829	0.565099	11582.052734
7925.025371	0.084825	0.565099	11675.445312
7926.098959	1.099552	0.476858	556.373352
7926.099855	1.532362	0.476858	1929.369873
7926.100722	1.519889	0.476858	3247.113525
7926.101815	1.473937	0.476858	4858.126465
7926.102805	1.431932	0.476858	6275.739258
7926.103703	1.396216	0.476858	7529.541016
7926.104693	1.358181	0.476858	8874.140625
7926.105748	1.319476	0.476858	10266.188477
7926.106657	0.746074	0.476858	10944.370117
7926.107527	0.093937	0.476858	11026.094727
7926.108627	0.084939	0.476858	11119.527344
7926.109595	0.084899	0.476858	11201.708984
7926.110464	0.084844	0.476858	11275.438477
7926.111497	0.085031	0.476858	11363.275391
7926.112522	0.084866	0.476858	11450.262695
7926.113410	0.084822	0.476858	11525.583984
7926.114310	0.084895	0.476858	11601.989258
7926.115392	0.084946	0.476858	11693.901367
7926.116338	0.084844	0.476858	11774.163086
7927.040448	1.030529	0.566380	439.005157
7927.041481	1.531479	0.566380	2021.023437
7927.042503	1.512627	0.566380	3566.928223
7927.043397	1.473157	0.566380	4883.930664
7927.044349	1.433954	0.566380	6249.054687
7927.045397	1.391287	0.566380	7707.123047
7927.046332	1.355467	0.566380	8974.485352
7927.047195	1.322794	0.566380	10116.056641
7927.048264	0.701327	0.566380	10865.775391
7927.049276	0.087795	0.566380	10954.624023
7927.050151	0.084760	0.566380	11028.789062
7927.051122	0.084869	0.566380	11111.197266
7927.052172	0.084899	0.566380	11200.340820
7927.053066	0.084840	0.566380	11276.187500
7927.053935	0.084902	0.566380	11349.967773
7927.054997	0.084990	0.566380	11440.227539
7927.055992	0.084965	0.566380	11524.767578
7927.056882	0.084858	0.566380	11600.291992
7927.057844	0.084935	0.566380	11682.000000
7928.131630	1.134653	0.470889	595.692993
7928.132630	1.535885	0.470889	2131.578125
7928.133524	1.515011	0.470889	3485.998047
7928.134529	1.471571	0.470889	4964.926758
7928.135590	1.427615	0.470889	6479.625977
7928.136475	1.391191	0.470889	7710.830078
7928.137360	1.356134	0.470889	8911.008789
7928.138450	1.317078	0.470889	10346.623047
7928.139423	0.600743	0.470889	10931.146484
7928.140288	0.088802	0.470889	11007.960937
7928.141338	0.084891	0.470889	11097.096680
7928.142363	0.084789	0.470889	11184.004883
7928.143237	0.084877	0.470889	11258.187500
7928.144168	0.084899	0.470889	11337.228516
7928.145234	0.084902	0.470889	11427.734375
7928.146178	0.084774	0.470889	11507.760742
7928.147046	0.084844	0.470889	11581.405273
7928.148083	0.085009	0.470889	11669.559570
7928.149107	0.084833	0.470889	11756.428711
7929.073595	1.028328	0.572785	432.925903
7929.074647	1.531106	0.572785	2043.649292
7929.075679	1.511774	0.572785	3603.799805
7929.076559	1.472893	0.572785	4899.945801
7929.077533	1.432954	0.572785	6295.643066
7929.078583	1.390236	0.572785	7755.390625
7929.079508	1.354501	0.572785	9008.303711
7929.080375	1.321542	0.572785	10154.080078
7929.081454	0.645469	0.572785	10850.541016
7929.082460	0.086660	0.572785	10937.720703
7929.083343	0.084789	0.572785	11012.588867
7929.084325	0.084946	0.572785	11096.005859
7929.085376	0.084932	0.572785	11185.268555
7929.086281	0.084840	0.572785	11262.048828
7929.087143	0.084789	0.572785	11335.136719
7929.088245	0.084983	0.572785	11428.788086
7929.089221	0.084858	0.572785	11511.610352
7929.090097	0.084825	0.572785	11585.916992
7929.091094	0.084946	0.572785	11670.608398
7930.163704	1.067432	0.474804	503.827698
7930.164596	1.530121	0.474804	1868.695557
7930.165464	1.522504	0.474804	3190.228516
7930.166422	1.481272	0.474804	4609.287109
7930.167366	1.441047	0.474804	5969.635742
7930.168287	1.403826	0.474804	7262.559570
7930.169156	1.369036	0.474804	8452.251953
7930.170126	1.333198	0.474804	9745.454102
7930.171057	1.164719	0.474804	10829.807617
7930.171938	0.178879	0.474804	10987.400391
7930.172907	0.084771	0.474804	11069.542969
7930.173821	0.084822	0.474804	11147.070312
7930.174741	0.084774	0.474804	11225.062500
7930.175603	0.084866	0.474804	11298.216797
7930.176561	0.084818	0.474804	11379.472656
7930.177499	0.084807	0.474804	11459.021484
7930.178369	0.084778	0.474804	11532.778320
7930.179281	0.084851	0.474804	11610.162109
7930.180232	0.084869	0.474804	11690.873047
7931.109358	1.074609	0.565663	511.514008
7931.110290	1.531168	0.565663	1938.562866
7931.111211	1.518973	0.565663	3337.537354
7931.112085	1.480305	0.565663	4631.324219
7931.113058	1.440439	0.565663	6032.872070
7931.113969	1.401603	0.565663	7309.732422
7931.114891	1.366227	0.565663	8569.393555
7931.115769	1.332799	0.565663	9739.590820
7931.116742	1.117496	0.565663	10826.915039
7931.117695	0.147697	0.565663	10967.669922
7931.118585	0.084642	0.565663	11043.001953
7931.119492	0.084836	0.565663	11119.948242
7931.120446	0.084756	0.565663	11200.805664
7931.121365	0.084811	0.565663	11278.747070
7931.122230	0.084862	0.565663	11352.152344
7931.123202	0.084844	0.565663	11434.620117
7931.124147	0.084833	0.565663	11514.787109
7931.125013	0.084818	0.565663	11588.239258
7931.126049	0.084774	0.565663	11676.065430
7932.194743	1.032264	0.480492	434.583344
7932.195699	1.530198	0.480492	1897.452393
7932.196632	1.519739	0.480492	3315.368652
7932.197520	1.480767	0.480492	4630.289551
7932.198469	1.441890	0.480492	5998.642578
7932.199401	1.402398	0.480492	7305.676758
7932.200344	1.366282	0.480492	8594.080078
7932.201236	1.333033	0.480492	9783.145508
7932.202170	1.130511	0.480492	10839.042969
7932.203132	0.155610	0.480492	10988.740234
7932.204009	0.084723	0.480492	11063.041992
7932.204935	0.084869	0.480492	11141.630859
7932.205876	0.084847	0.480492	11221.472656
7932.206792	0.084774	0.480492	11299.125977
7932.207679	0.084796	0.480492	11374.339844
7932.208632	0.084891	0.480492	11455.241211
7932.209549	0.084840	0.480492	11533.040039
7932.210427	0.084840	0.480492	11607.529297
7932.211305	0.084836	0.480492	11682.015625
7933.145107	1.099812	0.562799	555.405090
7933.145980	1.531318	0.562799	1892.246094
7933.146869	1.519266	0.562799	3242.874023
7933.147969	1.472802	0.562799	4862.955566
7933.148930	1.433141	0.562799	6240.204102
7933.149799	1.397853	0.562799	7454.937988
7933.150835	1.357874	0.562799	8861.695312
7933.151873	1.319564	0.562799	10231.403320
7933.152771	0.783999	0.562799	10935.434570
7933.153708	0.095848	0.562799	11025.244141
7933.154768	0.084913	0.562799	11115.251953
7933.155702	0.084895	0.562799	11194.543945
7933.156565	0.084844	0.562799	11267.763672
7933.157607	0.084899	0.562799	11356.228516
7933.158613	0.084869	0.562799	11441.607422
7933.159499	0.084811	0.562799	11516.750000
7933.160461	0.084822	0.562799	11598.348633
7933.161510	0.084943	0.562799	11687.453125
7933.162433	0.084844	0.562799	11765.763672
7934.222788	1.042328	0.494096	449.243317
7934.223655	1.525430	0.494096	1771.790894
7934.224731	1.517102	0.494096	3404.192871
7934.225649	1.476782	0.494096	4759.878906
7934.226520	1.440022	0.494096	6014.138184
7934.227526	1.400361	0.494096	7422.901367
7934.228546	1.360075	0.494096	8810.177734
7934.229431	1.326885	0.494096	9984.470703
7934.230294	1.033436	0.494096	10876.326172
7934.231348	0.109274	0.494096	10991.500977
7934.232279	0.084752	0.494096	11070.405273
7934.233152	0.084833	0.494096	11144.463867
7934.234104	0.084954	0.494096	11225.339844
7934.235128	0.084818	0.494096	11312.193359
7934.236017	0.084803	0.494096	11387.583984
7934.236879	0.084855	0.494096	11460.728516
7934.237941	0.084873	0.494096	11550.863281
7934.238881	0.084752	0.494096	11630.530273
7934.239755	0.084771	0.494096	11704.620117
7935.181804	1.081025	0.558778	508.081909
7935.182682	1.528960	0.558778	1850.508667
7935.183685	1.518160	0.558778	3373.223633
7935.184743	1.472318	0.558778	4930.936035
7935.185647	1.433643	0.558778	6226.948730
7935.186514	1.397161	0.558778	7438.287109
7935.187599	1.356313	0.558778	8909.886719
7935.188601	1.318964	0.558778	10231.488281
7935.189505	0.788269	0.558778	10944.083984
7935.190488	0.094841	0.558778	11037.312500
7935.191534	0.084899	0.558778	11126.116211
7935.192422	0.084840	0.558778	11201.454102
7935.193290	0.084792	0.558778	11275.053711
7935.194391	0.084895	0.558778	11368.523437
7935.195353	0.084829	0.558778	11450.128906
7935.196220	0.084880	0.558778	11523.719727
7935.197259	0.084979	0.558778	11612.012695
7935.198286	0.084814	0.558778	11699.117187
7935.199173	0.084829	0.558778	11774.360352
7936.251853	1.054069	0.497185	462.736115
7936.252731	1.527169	0.497185	1803.590698
7936.253595	1.522072	0.497185	3118.660645
7936.254705	1.476753	0.497185	4757.856445
7936.255622	1.437748	0.497185	6076.271484
7936.256501	1.402306	0.497185	7308.898437
7936.257488	1.364030	0.497185	8655.195312
7936.258484	1.326786	0.497185	9976.673828
7936.259377	1.037688	0.497185	10903.329102
7936.260243	0.132268	0.497185	11017.873047
7936.261352	0.084789	0.497185	11111.904297
7936.262257	0.084785	0.497185	11188.634766
7936.263128	0.084851	0.497185	11262.540039
7936.264132	0.084943	0.497185	11347.822266
7936.265124	0.084730	0.497185	11431.875000
7936.266011	0.084822	0.497185	11507.112305
7936.266868	0.084818	0.497185	11579.801758
7936.267966	0.084877	0.497185	11672.996094
7936.268853	0.084741	0.497185	11748.161133
7937.221144	1.107825	0.545730	559.451477
7937.222050	1.532677	0.545730	1948.056885
7937.222930	1.519900	0.545730	3285.568848
7937.223917	1.477328	0.545730	4743.691406
7937.224935	1.434276	0.545730	6203.784180
7937.225825	1.398157	0.545730	7448.143555
7937.226693	1.363619	0.545730	8631.765625
7937.227787	1.324098	0.545730	10080.329102
7937.228722	0.892474	0.545730	10914.792969
7937.229593	0.105099	0.545730	11006.333984
7937.230562	0.084847	0.545730	11088.550781
7937.231561	0.084833	0.545730	11173.298828
7937.232436	0.084789	0.545730	11247.489258
7937.233295	0.084833	0.545730	11320.360352
7937.234358	0.084862	0.545730	11410.568359
7937.235284	0.084811	0.545730	11489.103516
7937.236149	0.084902	0.545730	11562.543945
7937.237089	0.084913	0.545730	11642.362305
7937.238127	0.084844	0.545730	11730.429687
7938.279367	1.037501	0.507248	447.163025
7938.280233	1.525488	0.507248	1768.235840
7938.281278	1.518823	0.507248	3355.406250
7938.282163	1.479866	0.507248	4665.087402
7938.283031	1.442842	0.507248	5917.474121
7938.283938	1.404774	0.507248	7191.604492
7938.284958	1.365238	0.507248	8584.147461
7938.285880	1.331422	0.507248	9811.718750
7938.286762	1.179207	0.507248	10851.779297
7938.287755	0.165817	0.507248	11016.435547
7938.288675	0.084745	0.507248	11094.400391
7938.289592	0.084869	0.507248	11172.225586
7938.290459	0.084888	0.507248	11245.823242
7938.291485	0.084888	0.507248	11332.917969
7938.292365	0.084858	0.507248	11407.593750
7938.293234	0.084807	0.507248	11481.291016
7938.294222	0.084913	0.507248	11565.185547
7938.295154	0.084785	0.507248	11644.205078
7938.296053	0.084869	0.507248	11720.502930
7939.258821	1.041295	0.549143	446.715637
7939.259764	1.525737	0.549143	1885.485840
7939.260817	1.514626	0.549143	3480.387451
7939.261757	1.473501	0.549143	4865.478516
7939.262624	1.436612	0.549143	6111.021484
7939.263689	1.393905	0.549143	7595.530273
7939.264707	1.355057	0.549143	8974.978516
7939.265582	1.322531	0.549143	10132.192383
7939.266573	0.779938	0.549143	10905.110352
7939.267625	0.089531	0.549143	10999.296875
7939.268521	0.084760	0.549143	11075.241211
7939.269385	0.084807	0.549143	11148.514648
7939.270444	0.084899	0.549143	11238.421875
7939.271434	0.084785	0.549143	11322.359375
7939.272322	0.084825	0.549143	11397.684570
7939.273293	0.084906	0.549143	11480.127930
7939.274351	0.084917	0.549143	11569.969727
7939.275257	0.084829	0.549143	11646.825195
7939.276121	0.084906	0.549143	11720.183594
7940.308432	1.057647	0.510870	457.960937
7940.309351	1.529344	0.510870	1863.428467
7940.310241	1.521815	0.510870	3217.843994
7940.311190	1.481404	0.510870	4623.696289
7940.312135	1.441388	0.510870	5985.807617
7940.313031	1.404448	0.510870	7244.193359
7940.313980	1.367926	0.510870	8542.355469
7940.314951	1.331294	0.510870	9835.041992
7940.315878	1.123206	0.510870	10876.253906
7940.316759	0.159924	0.510870	11017.147461
7940.317705	0.084694	0.510870	11097.267578
7940.318617	0.084749	0.510870	11174.558594
7940.319533	0.084763	0.510870	11252.202148
7940.320414	0.084745	0.510870	11326.862305
7940.321444	0.084858	0.510870	11414.266602
7940.322371	0.084825	0.510870	11492.899414
7940.323260	0.084774	0.510870	11568.263672
7940.324254	0.084800	0.510870	11652.554687
7940.325166	0.084745	0.510870	11729.841797
7941.295044	1.046682	0.553034	453.213348
7941.295921	1.526825	0.553034	1792.238892
7941.296783	1.522877	0.553034	3104.958984
7941.297851	1.478899	0.553034	4684.422852
7941.298748	1.440905	0.553034	5976.914062
7941.299628	1.405316	0.553034	7213.592285
7941.300643	1.366465	0.553034	8600.553711
7941.301581	1.330657	0.553034	9848.709961
7941.302500	1.120499	0.553034	10878.449219
7941.303364	0.161228	0.553034	11017.750000
7941.304386	0.084708	0.553034	11104.322266
7941.305280	0.084800	0.553034	11180.132812
7941.306154	0.084906	0.553034	11254.340820
7941.307091	0.084943	0.553034	11333.931641
7941.308060	0.084785	0.553034	11416.088867
7941.308967	0.084851	0.553034	11493.048828
7941.309841	0.084844	0.553034	11567.202148
7941.310940	0.084913	0.553034	11660.521484
7941.311833	0.084749	0.553034	11736.202148
7942.339515	1.039878	0.517476	437.788605
7942.340591	1.533124	0.517476	2087.429932
7942.341518	1.514641	0.517476	3491.502441
7942.342396	1.476123	0.517476	4787.538574
7942.343382	1.435587	0.517476	6203.027344
7942.344390	1.394517	0.517476	7608.700195
7942.345279	1.359924	0.517476	8817.672852
7942.346141	1.327247	0.517476	9961.759766
7942.347207	0.847614	0.517476	10865.315430
7942.348128	0.097383	0.517476	10955.004883
7942.349009	0.084745	0.517476	11029.665039
7942.349962	0.084906	0.517476	11110.580078
7942.350997	0.084745	0.517476	11198.291016
7942.351887	0.084818	0.517476	11273.779297
7942.352751	0.084829	0.517476	11347.071289
7942.353812	0.084972	0.517476	11437.226562
7942.354760	0.084833	0.517476	11517.648437
7942.355632	0.084814	0.517476	11591.606445
7942.356568	0.084895	0.517476	11671.068359
7943.328194	1.041387	0.549989	447.796295
7943.329059	1.525404	0.549989	1767.270752
7943.330190	1.514491	0.549989	3480.160156
7943.331168	1.472036	0.549989	4919.811523
7943.332037	1.435485	0.549989	6167.247559
7943.333110	1.392217	0.549989	7661.096191
7943.334146	1.352922	0.549989	9062.723633
7943.335052	1.319041	0.549989	10257.774414
7943.335982	0.732814	0.549989	10939.291016
7943.337044	0.088209	0.549989	11032.968750
7943.337976	0.084829	0.549989	11112.029297
7943.338836	0.084851	0.549989	11185.000977
7943.339884	0.084873	0.549989	11273.948242
7943.340906	0.084866	0.549989	11360.680664
7943.341779	0.084891	0.549989	11434.791016
7943.342706	0.084946	0.549989	11513.536133
7943.343786	0.084990	0.549989	11605.325195
7943.344697	0.084873	0.549989	11682.644531
7943.345561	0.084811	0.549989	11755.920898
7944.373786	1.112813	0.520155	576.436890
7944.374692	1.532651	0.520155	1965.019043
7944.375553	1.519321	0.520155	3273.154785
7944.376639	1.473596	0.520155	4873.480469
7944.377628	1.431984	0.520155	6289.712402
7944.378505	1.396311	0.520155	7514.277344
7944.379489	1.358467	0.520155	8851.008789
7944.380550	1.319458	0.520155	10250.954102
7944.381462	0.756420	0.520155	10940.808594
7944.382326	0.094563	0.520155	11022.510742
7944.383412	0.084877	0.520155	11114.686523
7944.384381	0.084884	0.520155	11196.939453
7944.385247	0.084829	0.520155	11270.401367
7944.386301	0.084972	0.520155	11359.961914
7944.387347	0.084983	0.520155	11448.854492
7944.388235	0.084803	0.520155	11524.160156
7944.389154	0.084924	0.520155	11602.206055
7944.390225	0.084943	0.520155	11693.179687
7944.391182	0.084873	0.520155	11774.403320
7945.358801	1.056442	0.539354	462.721436
7945.359677	1.526946	0.539354	1800.325928
7945.360722	1.517197	0.539354	3385.796875
7945.361624	1.477698	0.539354	4718.680176
7945.362506	1.440564	0.539354	5989.257812
7945.363485	1.401427	0.539354	7361.254883
7945.364447	1.363550	0.539354	8672.990234
7945.365374	1.329419	0.539354	9905.361328
7945.366242	1.117661	0.539354	10875.491211
7945.367266	0.129247	0.539354	11007.839844
7945.368139	0.084829	0.539354	11081.895508
7945.369003	0.084895	0.539354	11155.245117
7945.369915	0.084888	0.539354	11232.663086
7945.370905	0.084884	0.539354	11316.698242
7945.371798	0.084869	0.539354	11392.486328
7945.372679	0.084851	0.539354	11467.240234
7945.373657	0.084855	0.539354	11550.228516
7945.374597	0.084818	0.539354	11629.958008
7945.375519	0.084862	0.539354	11708.201172
7946.408889	1.025266	0.507570	430.611755
7946.409763	1.524565	0.507570	1763.082031
7946.410819	1.517472	0.507570	3365.532227
7946.411715	1.478518	0.507570	4690.284180
7946.412603	1.441285	0.507570	5970.145508
7946.413606	1.401138	0.507570	7375.486328
7946.414524	1.364524	0.507570	8628.119141
7946.415454	1.330386	0.507570	9865.377930
7946.416322	1.096274	0.507570	10816.944336
7946.417373	0.122721	0.507570	10945.923828
7946.418250	0.084745	0.507570	11020.245117
7946.419115	0.084778	0.507570	11093.578125
7946.420080	0.084957	0.507570	11175.561523
7946.421017	0.084796	0.507570	11255.015625
7946.421929	0.084888	0.507570	11332.433594
7946.422805	0.084862	0.507570	11406.772461
7946.423839	0.084888	0.507570	11494.545898
7946.424735	0.084833	0.507570	11570.555664
7946.425606	0.084847	0.507570	11644.458008
7947.385791	1.030942	0.545449	438.150543
7947.386785	1.526858	0.545449	1955.847290
7947.387711	1.517640	0.545449	3361.182129
7947.388625	1.477811	0.545449	4711.901367
7947.389502	1.440059	0.545449	5974.833008
7947.390528	1.398995	0.545449	7410.202148
7947.391428	1.363762	0.545449	8637.587891
7947.392344	1.330104	0.545449	9855.962891
7947.393221	1.121034	0.545449	10839.109375
7947.394215	0.132554	0.545449	10970.868164
7947.395133	0.084639	0.545449	11048.566406
7947.396000	0.084818	0.545449	11122.103516
7947.397085	0.084785	0.545449	11214.095703
7947.397990	0.084902	0.545449	11290.932617
7947.398908	0.084763	0.545449	11368.745117
7947.399774	0.084778	0.545449	11442.163086
7947.400711	0.084778	0.545449	11521.599609
7947.401665	0.084690	0.545449	11602.393555
7947.402552	0.084851	0.545449	11677.656250
7948.449226	1.043804	0.473068	456.142212
7948.450091	1.525891	0.473068	1776.038086
7948.451057	1.520786	0.473068	3245.117676
7948.451991	1.480301	0.473068	4627.719238
7948.452881	1.442842	0.473068	5911.848633
7948.453802	1.406125	0.473068	7206.890137
7948.454730	1.368618	0.473068	8476.967773
7948.455675	1.333744	0.473068	9737.355469
7948.456568	1.220171	0.473068	10826.967773
7948.457505	0.196055	0.473068	11010.670898
7948.458453	0.084690	0.473068	11090.957031
7948.459375	0.084855	0.473068	11169.193359
7948.460233	0.084705	0.473068	11241.870117
7948.461179	0.084818	0.473068	11322.108398
7948.462133	0.084781	0.473068	11402.990234
7948.463038	0.084869	0.473068	11479.796875
7948.463898	0.084771	0.473068	11552.699219
7948.464868	0.084858	0.473068	11635.011719
7948.465817	0.084880	0.473068	11715.563477
7949.411825	1.061191	0.563383	493.454010
7949.412727	1.529879	0.563383	1873.404907
7949.413603	1.521551	0.563383	3206.284180
7949.414515	1.483132	0.563383	4558.900879
7949.415435	1.442871	0.563383	5886.342285
7949.416383	1.404829	0.563383	7218.120117
7949.417273	1.369948	0.563383	8437.373047
7949.418212	1.334949	0.563383	9690.889648
7949.419169	1.165477	0.563383	10806.250977
7949.420106	0.172837	0.563383	10968.199219
7949.420963	0.084705	0.563383	11040.791016
7949.421901	0.084760	0.563383	11120.295898
7949.422844	0.084749	0.563383	11200.213867
7949.423748	0.084767	0.563383	11276.842773
7949.424606	0.084792	0.563383	11349.594727
7949.425571	0.084631	0.563383	11431.263672
7949.426495	0.084785	0.563383	11509.605469
7949.427357	0.084723	0.563383	11582.636719
7949.428327	0.084814	0.563383	11664.906250
7950.487995	1.029866	0.450292	435.633209
7950.489020	1.530315	0.450292	2004.205933
7950.490071	1.511865	0.450292	3593.176270
7950.490965	1.471952	0.450292	4909.101074
7950.491877	1.433372	0.450292	6216.335937
7950.492970	1.389880	0.450292	7735.475098
7950.493926	1.353420	0.450292	9029.344727
7950.494802	1.320765	0.450292	10186.334961
7950.495863	0.636566	0.450292	10861.731445
7950.496877	0.086598	0.450292	10949.541992
7950.497766	0.084771	0.450292	11024.903320
7950.498720	0.084781	0.450292	11105.785156
7950.499768	0.084858	0.450292	11194.716797
7950.500684	0.084749	0.450292	11272.346680
7950.501543	0.084716	0.450292	11345.117187
7950.502613	0.084829	0.450292	11435.884766
7950.503618	0.084745	0.450292	11521.053711
7950.504488	0.084752	0.450292	11594.788086
7950.505467	0.084789	0.450292	11677.795898
7951.438795	1.050048	0.577735	463.070953
7951.439904	1.533688	0.577735	2163.930664
7951.440792	1.514344	0.577735	3508.668457
7951.441657	1.475896	0.577735	4785.318359
7951.442719	1.431870	0.577735	6305.964355
7951.443696	1.392645	0.577735	7666.578613
7951.444565	1.358577	0.577735	8847.181641
7951.445440	1.324406	0.577735	10006.036133
7951.446567	0.733715	0.577735	10832.932617
7951.447469	0.091641	0.577735	10915.592773
7951.448334	0.084741	0.577735	10988.893555
7951.449376	0.084928	0.577735	11077.388672
7951.450345	0.084741	0.577735	11159.502930
7951.451219	0.084814	0.577735	11233.630859
7951.452076	0.084781	0.577735	11306.289062
7951.453189	0.084811	0.577735	11400.683594
7951.454087	0.084690	0.577735	11476.735352
7951.454958	0.084723	0.577735	11550.529297
7951.455970	0.084818	0.577735	11636.365234
7952.526828	1.099281	0.441268	511.165649
7952.527723	1.530179	0.441268	1880.676147
7952.528650	1.520281	0.441268	3289.976318
7952.529519	1.481279	0.441268	4577.208008
7952.530525	1.439875	0.441268	6025.722656
7952.531454	1.402214	0.441268	7328.379883
7952.532324	1.367889	0.441268	8518.443359
7952.533359	1.329807	0.441268	9894.793945
7952.534246	1.100585	0.441268	10871.012695
7952.535178	0.145298	0.441268	11006.430664
7952.536041	0.084701	0.441268	11079.527344
7952.537037	0.084840	0.441268	11164.028320
7952.537942	0.084679	0.441268	11240.663086
7952.538817	0.084803	0.441268	11314.866211
7952.539847	0.084833	0.441268	11402.244141
7952.540741	0.084738	0.441268	11477.999023
7952.541655	0.084814	0.441268	11555.519531
7952.542525	0.084785	0.441268	11629.282227
7952.543528	0.084818	0.441268	11714.354492
7953.465806	1.048400	0.588250	458.150665
7953.466672	1.525422	0.588250	1779.166382
7953.467649	1.520204	0.588250	3264.405762
7953.468606	1.479338	0.588250	4680.132812
7953.469478	1.441501	0.588250	5937.122070
7953.470397	1.404547	0.588250	7227.900879
7953.471355	1.367179	0.588250	8537.658203
7953.472286	1.332510	0.588250	9778.224609
7953.473168	1.198004	0.588250	10834.864258
7953.474093	0.172947	0.588250	10994.839844
7953.475045	0.084705	0.588250	11075.478516
7953.475970	0.084792	0.588250	11153.911133
7953.476832	0.084822	0.588250	11227.027344
7953.477803	0.084664	0.588250	11309.236328
7953.478747	0.084760	0.588250	11389.249023
7953.479625	0.084760	0.588250	11463.667969
7953.480510	0.084818	0.588250	11538.732422
7953.481461	0.084818	0.588250	11619.394531
7953.482402	0.084796	0.588250	11699.187500
7954.562490	1.027903	0.437957	431.719208
7954.563410	1.525360	0.437957	1835.050537
7954.564344	1.520801	0.437957	3255.478516
7954.565271	1.480605	0.437957	4628.000000
7954.566157	1.442904	0.437957	5906.413086
7954.567075	1.406488	0.437957	7197.568848
7954.567997	1.368915	0.437957	8459.708008
7954.568934	1.334744	0.437957	9710.363281
7954.569798	1.221724	0.437957	10765.932617
7954.570773	0.202936	0.437957	10963.794922
7954.571726	0.084756	0.437957	11044.567383
7954.572595	0.084814	0.437957	11118.271484
7954.573506	0.084855	0.437957	11195.574219
7954.574455	0.084880	0.437957	11276.125977
7954.575375	0.084851	0.437957	11354.189453
7954.576253	0.084862	0.437957	11428.698242
7954.577187	0.084800	0.437957	11507.901367
7954.578123	0.084840	0.437957	11587.311523
7954.579040	0.084800	0.437957	11665.073242
7955.495451	1.118386	0.604238	569.258606
7955.496465	1.534845	0.604238	2125.591309
7955.497350	1.514974	0.604238	3466.343750
7955.498332	1.472629	0.604238	4912.465820
7955.499390	1.428582	0.604238	6423.905273
7955.500296	1.391397	0.604238	7684.510742
7955.501157	1.356830	0.604238	8852.741211
7955.502263	1.317715	0.604238	10310.133789
7955.503264	0.588647	0.604238	10899.370117
7955.504138	0.088085	0.604238	10976.356445
7955.505133	0.084913	0.604238	11060.845703
7955.506187	0.084932	0.604238	11150.363281
7955.507073	0.084858	0.604238	11225.547852
7955.507959	0.084851	0.604238	11300.725586
7955.509048	0.084855	0.604238	11393.132812
7955.510012	0.084781	0.604238	11474.862305
7955.510880	0.084888	0.604238	11548.544922
7955.511915	0.084994	0.604238	11636.513672
7955.512941	0.084877	0.604238	11723.597656
7956.597181	1.033400	0.437619	438.161469
7956.598048	1.525265	0.437619	1760.566162
7956.599132	1.516615	0.437619	3404.576660
7956.600073	1.475446	0.437619	4792.970703
7956.600949	1.438759	0.437619	6053.323242
7956.601916	1.400317	0.437619	7407.430176
7956.602929	1.360609	0.437619	8785.727539
7956.603810	1.327742	0.437619	9955.467773
7956.604676	1.063022	0.437619	10876.044922
7956.605744	0.112126	0.437619	10995.795898
7956.606681	0.084668	0.437619	11075.129883
7956.607550	0.084800	0.437619	11148.821289
7956.608505	0.084855	0.437619	11229.857422
7956.609544	0.084738	0.437619	11317.899414
7956.610432	0.084760	0.437619	11393.166016
7956.611294	0.084767	0.437619	11466.235352
7956.612332	0.084891	0.437619	11554.352539
7956.613277	0.084752	0.437619	11634.443359
7956.614152	0.084803	0.437619	11708.646484
7957.528510	1.032037	0.599988	440.679901
7957.529459	1.527048	0.599988	1889.848755
7957.530358	1.520101	0.599988	3256.419922
7957.531285	1.480521	0.599988	4628.863281
7957.532156	1.442831	0.599988	5885.568848
7957.533164	1.402727	0.599988	7299.517578
7957.534098	1.366512	0.599988	8575.839844
7957.534984	1.333048	0.599988	9756.919922
7957.535880	1.167506	0.599988	10803.005859
7957.536841	0.171771	0.599988	10968.078125
7957.537788	0.084679	0.599988	11048.269531
7957.538662	0.084694	0.599988	11122.291992
7957.539574	0.084833	0.599988	11199.659180
7957.540522	0.084712	0.599988	11279.965820
7957.541445	0.084763	0.599988	11358.202148
7957.542317	0.084778	0.599988	11432.128906
7957.543286	0.084767	0.599988	11514.267578
7957.544204	0.084749	0.599988	11592.066406
7957.545117	0.084763	0.599988	11669.455078
7958.630372	1.058152	0.431145	493.098755
7958.631304	1.531359	0.431145	1920.324951
7958.632189	1.520585	0.431145	3266.042480
7958.633100	1.481814	0.431145	4615.975098
7958.634019	1.441805	0.431145	5940.994141
7958.634970	1.403584	0.431145	7275.802246
7958.635851	1.368944	0.431145	8481.841797
7958.636765	1.333942	0.431145	9701.064453
7958.637724	1.144739	0.431145	10798.869141
7958.638657	0.165168	0.431145	10952.971680
7958.639530	0.084664	0.431145	11026.883789
7958.640499	0.084749	0.431145	11109.004883
7958.641420	0.084675	0.431145	11186.991211
7958.642330	0.084789	0.431145	11264.149414
7958.643195	0.084800	0.431145	11337.500977
7958.644163	0.084781	0.431145	11419.569336
7958.645085	0.084818	0.431145	11497.771484
7958.645941	0.084734	0.431145	11570.303711
7958.646904	0.084803	0.431145	11651.969727
7959.561190	1.076433	0.598655	501.617798
7959.562075	1.528898	0.598655	1854.692261
7959.562943	1.521819	0.598655	3175.631104
7959.563932	1.480056	0.598655	4639.406738
7959.564891	1.440037	0.598655	6020.401855
7959.565785	1.403236	0.598655	7274.895020
7959.566706	1.368025	0.598655	8534.845703
7959.567660	1.332436	0.598655	9805.990234
7959.568587	1.148225	0.598655	10870.394531
7959.569448	0.174298	0.598655	11020.464844
7959.570396	0.084785	0.598655	11100.840820
7959.571353	0.084760	0.598655	11181.956055
7959.572242	0.084807	0.598655	11257.349609
7959.573342	0.084855	0.598655	11350.689453
7959.574290	0.084924	0.598655	11431.197266
7959.575218	0.084814	0.598655	11509.905273
7959.576079	0.084858	0.598655	11582.968750
7959.577048	0.084675	0.598655	11665.019531
7959.577998	0.084847	0.598655	11745.625000
7960.661476	1.081201	0.432974	489.784149
7960.662388	1.530915	0.432974	1885.979126
7960.663271	1.520383	0.432974	3228.477539
7960.664253	1.478716	0.432974	4680.576172
7960.665203	1.439114	0.432974	6047.734375
7960.666095	1.402771	0.432974	7299.005859
7960.667019	1.367432	0.432974	8562.512695
7960.667985	1.331371	0.432974	9848.617187
7960.668897	1.114845	0.432974	10865.355469
7960.669779	0.158313	0.432974	11004.987305
7960.670714	0.084712	0.432974	11084.193359
7960.671668	0.084895	0.432974	11165.183594
7960.672585	0.084800	0.432974	11242.945312
7960.673442	0.084877	0.432974	11315.684570
7960.674478	0.084818	0.432974	11403.555664
7960.675525	0.084862	0.432974	11492.406250
7960.676431	0.084763	0.432974	11569.202148
7960.677294	0.084825	0.432974	11642.406250
7960.678390	0.084818	0.432974	11735.367187
7961.594416	1.128816	0.596802	611.818298
7961.595463	1.534838	0.596802	2218.793213
7961.596365	1.511547	0.596802	3582.208252
7961.597241	1.471362	0.596802	4871.121582
7961.598348	1.426992	0.596802	6450.801758
7961.599321	1.388082	0.596802	7801.405762
7961.600193	1.354603	0.596802	8982.620117
7961.601253	1.315642	0.596802	10377.201172
7961.602306	0.469830	0.596802	10871.932617
7961.603188	0.086100	0.596802	10947.873047
7961.604106	0.084888	0.596802	11025.799805
7961.605178	0.084972	0.596802	11116.889648
7961.606123	0.084877	0.596802	11197.097656
7961.606983	0.084796	0.596802	11270.022461
7961.608022	0.084895	0.596802	11358.228516
7961.609041	0.084902	0.596802	11444.744141
7961.609914	0.084807	0.596802	11518.781250
7961.610848	0.084968	0.596802	11598.141602
7961.611897	0.084943	0.596802	11687.246094
7962.694690	1.126285	0.428998	577.784363
7962.695699	1.535610	0.428998	2127.215332
7962.696592	1.514755	0.428998	3479.891113
7962.697567	1.472585	0.428998	4915.662109
7962.698617	1.428153	0.428998	6415.222656
7962.699539	1.391038	0.428998	7697.759277
7962.700411	1.356552	0.428998	8880.671875
7962.701505	1.317272	0.428998	10321.767578
7962.702499	0.568506	0.428998	10886.862305
7962.703389	0.087664	0.428998	10964.882812
7962.704373	0.084906	0.428998	11048.430664
7962.705432	0.084946	0.428998	11138.388672
7962.706326	0.084825	0.428998	11214.222656
7962.707189	0.084932	0.428998	11287.518555
7962.708285	0.084928	0.428998	11380.599609
7962.709248	0.084851	0.428998	11462.311523
7962.710106	0.084833	0.428998	11535.097656
7962.711157	0.084899	0.428998	11624.326172
7962.712200	0.084928	0.428998	11712.906250
7963.626428	1.032378	0.597708	437.728241
7963.627388	1.525261	0.597708	1901.979004
7963.628448	1.513539	0.597708	3506.330078
7963.629392	1.472384	0.597708	4896.260742
7963.630263	1.435027	0.597708	6146.168945
7963.631355	1.391858	0.597708	7666.077637
7963.632352	1.353461	0.597708	9015.477539
7963.633245	1.320740	0.597708	10194.898437
7963.634240	0.708940	0.597708	10900.293945
7963.635288	0.088022	0.597708	10992.541016
7963.636177	0.084829	0.597708	11067.954102
7963.637035	0.084888	0.597708	11140.788086
7963.638120	0.084994	0.597708	11233.006836
7963.639108	0.084884	0.597708	11316.872070
7963.639985	0.084884	0.597708	11391.315430
7963.640983	0.084965	0.597708	11476.110352
7963.642033	0.084906	0.597708	11565.261719
7963.642904	0.084847	0.597708	11639.164062
7963.643768	0.084946	0.597708	11712.557617
7964.726712	1.031023	0.430549	434.060638
7964.727762	1.532289	0.430549	2042.963867
7964.728784	1.511810	0.430549	3588.033936
7964.729685	1.472285	0.430549	4914.562988
7964.730651	1.432233	0.430549	6298.099609
7964.731711	1.389474	0.430549	7770.941895
7964.732639	1.353794	0.430549	9027.262695
7964.733502	1.320974	0.430549	10167.263672
7964.734574	0.645139	0.430549	10858.852539
7964.735564	0.086832	0.430549	10944.816406
7964.736445	0.084825	0.430549	11019.547852
7964.737429	0.084858	0.430549	11103.048828
7964.738472	0.084818	0.430549	11191.513672
7964.739371	0.084807	0.430549	11267.754883
7964.740227	0.084716	0.430549	11340.271484
7964.741301	0.084880	0.430549	11431.432617
7964.742286	0.084734	0.430549	11514.895508
7964.743152	0.084763	0.430549	11588.300781
7964.744132	0.084855	0.430549	11671.458008
7965.659079	1.041526	0.593083	454.105255
7965.659946	1.525397	0.593083	1776.624146
7965.660998	1.516901	0.593083	3372.403809
7965.662028	1.472322	0.593083	4888.895508
7965.662924	1.434858	0.593083	6174.528809
7965.663894	1.396143	0.593083	7528.787109
7965.664954	1.354911	0.593083	8964.992187
7965.665885	1.320659	0.593083	10194.525391
7965.666761	0.834899	0.593083	10925.896484
7965.667854	0.089996	0.593083	11024.262695
7965.668841	0.084807	0.593083	11107.967773
7965.669733	0.084862	0.593083	11183.665039
7965.670716	0.084939	0.593083	11267.160156
7965.671767	0.084961	0.593083	11356.454102
7965.672668	0.084855	0.593083	11432.908203
7965.673528	0.084935	0.593083	11505.952148
7965.674626	0.084913	0.593083	11599.186523
7965.675600	0.084785	0.593083	11681.767578
7965.676458	0.084891	0.593083	11754.604492
7966.757921	1.119115	0.433707	570.748657
7966.758880	1.534948	0.433707	2042.763306
7966.759743	1.518281	0.433707	3353.040039
7966.760788	1.473120	0.433707	4892.450684
7966.761820	1.430230	0.433707	6368.447754
7966.762703	1.394136	0.433707	7599.469727
7966.763649	1.358064	0.433707	8884.198242
7966.764731	1.318228	0.433707	10310.520508
7966.765672	0.668665	0.433707	10939.733398
7966.766527	0.090850	0.433707	11017.410156
7966.767562	0.084924	0.433707	11105.306641
7966.768578	0.084858	0.433707	11191.522461
7966.769465	0.084792	0.433707	11266.733398
7966.770423	0.084946	0.433707	11348.112305
7966.771473	0.084921	0.433707	11437.279297
7966.772398	0.084840	0.433707	11515.756836
7966.773267	0.084847	0.433707	11589.489258
7966.774336	0.084983	0.433707	11680.335937
7966.775337	0.084862	0.433707	11765.283203
7967.691765	1.085988	0.596697	519.102051
7967.692649	1.529425	0.596697	1871.113770
7967.693608	1.518827	0.596697	3327.668945
7967.694663	1.472944	0.596697	4881.625000
7967.695588	1.433796	0.596697	6207.886719
7967.696459	1.398084	0.596697	7425.617676
7967.697520	1.357412	0.596697	8865.832031
7967.698531	1.320044	0.596697	10200.396484
7967.699431	0.822228	0.596697	10940.401367
7967.700406	0.097416	0.596697	11035.381836
7967.701452	0.084873	0.596697	11124.159180
7967.702369	0.084829	0.596697	11201.947266
7967.703227	0.084862	0.596697	11274.758789
7967.704310	0.084983	0.596697	11366.794922
7967.705295	0.084851	0.596697	11450.373047
7967.706187	0.084902	0.596697	11526.105469
7967.707155	0.084987	0.596697	11608.372070
7967.708210	0.084928	0.596697	11697.970703
7967.709110	0.084847	0.596697	11774.333008
7968.791070	1.116921	0.429530	569.629883
7968.792024	1.534252	0.429530	2033.306030
7968.792886	1.518600	0.429530	3342.339111
7968.793908	1.473549	0.429530	4848.305664
7968.794970	1.430376	0.429530	6367.365234
7968.795846	1.393997	0.429530	7588.506348
7968.796786	1.358119	0.429530	8865.137695
7968.797862	1.318315	0.429530	10283.644531
7968.798806	0.678413	0.429530	10924.066406
7968.799673	0.090897	0.429530	11002.874023
7968.800727	0.084910	0.429530	11092.369141
7968.801741	0.084932	0.429530	11178.490234
7968.802632	0.084899	0.429530	11254.134766
7968.803593	0.085016	0.429530	11335.834961
7968.804638	0.084965	0.429530	11424.623047
7968.805565	0.084822	0.429530	11503.252930
7968.806426	0.084946	0.429530	11576.391602
7968.807483	0.084932	0.429530	11666.164062
7968.808469	0.084818	0.429530	11749.794922
7969.724929	1.104108	0.592745	527.763428
7969.725826	1.530586	0.592745	1900.698975
7969.726702	1.520885	0.592745	3232.994141
7969.727675	1.479877	0.592745	4672.914062
7969.728636	1.438594	0.592745	6055.402832
7969.729562	1.401207	0.592745	7352.920898
7969.730428	1.367117	0.592745	8536.843750
7969.731461	1.329477	0.592745	9910.194336
7969.732350	1.102101	0.592745	10889.961914
7969.733231	0.151813	0.592745	11023.708984
7969.734130	0.084840	0.592745	11099.980469
7969.735179	0.084716	0.592745	11188.846680
7969.736052	0.084767	0.592745	11262.847656
7969.736926	0.084807	0.592745	11336.968750
7969.737916	0.084943	0.592745	11421.061523
7969.738844	0.084855	0.592745	11499.806641
7969.739769	0.084781	0.592745	11578.229492
7969.740634	0.084866	0.592745	11651.638672
7969.741665	0.084884	0.592745	11739.154297
7970.823138	1.071669	0.426617	484.394226
7970.824014	1.528528	0.426617	1823.384521
7970.824937	1.522002	0.426617	3228.192383
7970.825893	1.480774	0.426617	4643.812500
7970.826823	1.440692	0.426617	5983.656250
7970.827701	1.404796	0.426617	7217.067383
7970.828623	1.368318	0.426617	8478.656250
7970.829582	1.333004	0.426617	9757.006836
7970.830511	1.169044	0.426617	10843.048828
7970.831389	0.180776	0.426617	11001.770508
7970.832353	0.084723	0.426617	11083.443359
7970.833295	0.084792	0.426617	11163.318359
7970.834180	0.084877	0.426617	11238.434570
7970.835058	0.084829	0.426617	11312.914062
7970.836009	0.084825	0.426617	11393.583008
7970.836937	0.084829	0.426617	11472.304687
7970.837794	0.084851	0.426617	11545.022461
7970.838752	0.084906	0.426617	11626.362305
7970.839700	0.084847	0.426617	11706.797852
7971.757554	1.087002	0.588471	510.890961
7971.758432	1.528722	0.588471	1853.108887
7971.759349	1.519739	0.588471	3246.709473
7971.760307	1.478708	0.588471	4663.312012
7971.761230	1.440033	0.588471	5992.462402
7971.762112	1.403932	0.588471	7230.730469
7971.763082	1.367021	0.588471	8556.741211
7971.764022	1.331704	0.588471	9808.542969
7971.764908	1.179034	0.588471	10853.166992
7971.765873	0.146041	0.588471	10994.096680
7971.766814	0.084690	0.588471	11073.790039
7971.767742	0.084789	0.588471	11152.473633
7971.768605	0.084855	0.588471	11225.703125
7971.769577	0.084803	0.588471	11308.131836
7971.770493	0.084781	0.588471	11385.791992
7971.771396	0.084807	0.588471	11462.373047
7971.772269	0.084829	0.588471	11536.428711
7971.773231	0.084866	0.588471	11618.069336
7971.774180	0.084803	0.588471	11698.547852
7972.854296	1.103734	0.425280	554.074524
7972.855201	1.532816	0.425280	1941.273193
7972.856069	1.519017	0.425280	3259.780273
7972.857164	1.473142	0.425280	4872.871094
7972.858161	1.431196	0.425280	6299.773926
7972.859046	1.395465	0.425280	7534.760742
7972.860063	1.356866	0.425280	8914.694336
7972.861105	1.318718	0.425280	10288.798828
7972.861997	0.743170	0.425280	10951.707031
7972.862868	0.093933	0.425280	11033.522461
7972.863979	0.084921	0.425280	11127.869141
7972.864932	0.084825	0.425280	11208.708008
7972.865791	0.084855	0.425280	11281.598633
7972.866806	0.085016	0.425280	11367.889648
7972.867861	0.084847	0.425280	11457.403320
7972.868750	0.084796	0.425280	11532.787109
7972.869680	0.084855	0.425280	11611.702148
7972.870744	0.084902	0.425280	11702.038086
7972.871689	0.084818	0.425280	11782.191406
7973.791225	1.094378	0.591649	517.640564
7973.792107	1.528986	0.591649	1866.205811
7973.792983	1.521720	0.591649	3199.232422
7973.793968	1.480690	0.591649	4657.711914
7973.794912	1.439656	0.591649	6016.747070
7973.795817	1.402515	0.591649	7286.022461
7973.796699	1.368087	0.591649	8492.675781
7973.797717	1.330635	0.591649	9847.261719
7973.798624	1.125974	0.591649	10868.520508
7973.799504	0.159108	0.591649	11008.535156
7973.800419	0.084829	0.591649	11086.153320
7973.801417	0.084730	0.591649	11170.713867
7973.802336	0.084672	0.591649	11248.527344
7973.803212	0.084847	0.591649	11322.853516
7973.804217	0.084902	0.591649	11408.180664
7973.805121	0.084858	0.591649	11484.892578
7973.806034	0.084913	0.591649	11562.417969
7973.806890	0.084862	0.591649	11635.059570
7973.807903	0.084847	0.591649	11721.009766
7974.883343	1.105920	0.423689	548.536560
7974.884386	1.535174	0.423689	2149.723633
7974.885269	1.514561	0.423689	3487.080566
7974.886232	1.472882	0.423689	4905.465820
7974.887297	1.428160	0.423689	6426.456543
7974.888227	1.390584	0.423689	7719.699219
7974.889089	1.356683	0.423689	8889.160156
7974.890166	1.317740	0.423689	10308.366211
7974.891192	0.560156	0.423689	10883.086914
7974.892061	0.087535	0.423689	10959.155273
7974.893026	0.084855	0.423689	11041.040039
7974.894077	0.084774	0.423689	11130.137695
7974.894979	0.084738	0.423689	11206.571289
7974.895845	0.084957	0.423689	11280.144531
7974.896915	0.084862	0.423689	11370.947266
7974.897899	0.084760	0.423689	11454.350586
7974.898790	0.084760	0.423689	11529.871094
7974.899763	0.084833	0.423689	11612.413086
7974.900815	0.084836	0.423689	11701.661133
7975.827912	1.041749	0.580862	453.160919
7975.828781	1.525693	0.580862	1778.988525
7975.829791	1.518644	0.580862	3312.818848
7975.830849	1.473446	0.580862	4871.724609
7975.831745	1.435214	0.580862	6157.675781
7975.832642	1.397783	0.580862	7411.487305
7975.833753	1.356222	0.580862	8918.250000
7975.834710	1.321007	0.580862	10182.454102
7975.835580	0.870813	0.580862	10940.061523
7975.836632	0.092930	0.580862	11037.823242
7975.837648	0.084774	0.580862	11123.954102
7975.838532	0.084862	0.580862	11198.971680
7975.839502	0.084899	0.580862	11281.323242
7975.840550	0.084910	0.580862	11370.308594
7975.841473	0.084767	0.580862	11448.548828
7975.842329	0.084880	0.580862	11521.206055
7975.843396	0.084847	0.580862	11611.738281
7975.844393	0.084734	0.580862	11696.217773
7975.845263	0.084811	0.580862	11770.002930
7976.910837	1.091411	0.428575	523.877319
7976.911717	1.530077	0.428575	1870.344971
7976.912662	1.519618	0.428575	3306.383789
7976.913718	1.473746	0.428575	4862.660156
7976.914661	1.434265	0.428575	6215.171875
7976.915529	1.398461	0.428575	7429.035645
7976.916573	1.358679	0.428575	8847.497070
7976.917603	1.320751	0.428575	10207.870117
7976.918487	0.846947	0.428575	10956.571289
7976.919455	0.099957	0.428575	11053.330078
7976.920506	0.084844	0.428575	11142.500977
7976.921412	0.084873	0.428575	11219.395508
7976.922277	0.084811	0.428575	11292.756836
7976.923358	0.084789	0.428575	11384.413086
7976.924339	0.084836	0.428575	11467.637695
7976.925234	0.084829	0.428575	11543.559570
7976.926203	0.084917	0.428575	11625.843750
7976.927257	0.084928	0.428575	11715.357422
7976.928160	0.084800	0.428575	11791.931641
7977.866299	1.152777	0.558311	630.569031
7977.867346	1.535457	0.558311	2238.192139
7977.868238	1.511528	0.558311	3586.475342
7977.869159	1.470901	0.558311	4941.174805
7977.870242	1.426135	0.558311	6485.679199
7977.871200	1.387921	0.558311	7815.307617
7977.872066	1.354296	0.558311	8988.127930
7977.873122	1.315920	0.558311	10377.740234
7977.874137	0.505386	0.558311	10890.707031
7977.875022	0.086924	0.558311	10967.634766
7977.875983	0.084957	0.558311	11049.278320
7977.877031	0.084961	0.558311	11138.317383
7977.877957	0.084891	0.558311	11216.926758
7977.878815	0.084902	0.558311	11289.773437
7977.879883	0.084987	0.558311	11380.539062
7977.880887	0.084888	0.558311	11465.766602
7977.881756	0.084829	0.558311	11539.483398
7977.882729	0.084928	0.558311	11622.118164
7977.883779	0.084917	0.558311	11711.281250
7978.937352	1.100416	0.433135	552.408997
7978.938284	1.532769	0.433135	1980.949219
7978.939209	1.517677	0.433135	3384.800293
7978.940080	1.478807	0.433135	4672.841309
7978.941064	1.438711	0.433135	6088.532715
7978.941988	1.400083	0.433135	7382.209473
7978.942893	1.364828	0.433135	8617.378906
7978.943779	1.330983	0.433135	9796.629883
7978.944749	1.069578	0.433135	10834.120117
7978.945705	0.132678	0.433135	10960.960937
7978.946597	0.084807	0.433135	11036.609375
7978.947511	0.084866	0.433135	11114.176758
7978.948464	0.084906	0.433135	11195.091797
7978.949354	0.084858	0.433135	11270.616211
7978.950283	0.084880	0.433135	11349.469727
7978.951239	0.084880	0.433135	11430.615234
7978.952160	0.084917	0.433135	11508.824219
7978.953027	0.084825	0.433135	11582.368164
7978.953962	0.084785	0.433135	11661.642578
7979.905008	1.061415	0.540756	496.742157
7979.905902	1.528704	0.540756	1863.403198
7979.906769	1.521790	0.540756	3182.794922
7979.907686	1.482821	0.540756	4542.541992
7979.908619	1.442563	0.540756	5888.453613
7979.909564	1.404177	0.540756	7215.401367
7979.910460	1.369460	0.540756	8442.437500
7979.911378	1.334597	0.540756	9667.597656
7979.912352	1.159662	0.540756	10797.108398
7979.913288	0.164623	0.540756	10951.195312
7979.914147	0.084701	0.540756	11023.953125
7979.915115	0.084906	0.540756	11106.142578
7979.916040	0.084869	0.540756	11184.646484
7979.916904	0.084851	0.540756	11257.958008
7979.917830	0.084807	0.540756	11336.489258
7979.918761	0.084814	0.540756	11415.451172
7979.919681	0.084891	0.540756	11493.550781
7979.920553	0.084855	0.540756	11567.543945
7979.921522	0.084873	0.540756	11649.786133
7980.964305	1.057592	0.454763	458.994751
7980.965183	1.527151	0.454763	1799.833252
7980.966060	1.523456	0.454763	3135.904053
7980.967036	1.483228	0.454763	4583.534180
7980.967955	1.442963	0.454763	5909.616699
7980.968885	1.405093	0.454763	7216.353027
7980.969756	1.370596	0.454763	8410.141602
7980.970743	1.333660	0.454763	9726.463867
7980.971668	1.174307	0.454763	10812.697266
7980.972593	0.178945	0.454763	10978.221680
7980.973454	0.084767	0.454763	11051.206055
7980.974403	0.084840	0.454763	11131.719727
7980.975355	0.084829	0.454763	11212.476562
7980.976241	0.084818	0.454763	11287.625000
7980.977155	0.084877	0.454763	11365.202148
7980.978104	0.084899	0.454763	11445.771484
7980.979019	0.084785	0.454763	11523.349609
7980.979904	0.084888	0.454763	11598.475586
7980.980833	0.084847	0.454763	11677.298828
7981.941197	1.039014	0.526632	455.087982
7981.942070	1.526169	0.526632	1787.433960
7981.943018	1.520522	0.526632	3228.889160
7981.944005	1.477965	0.526632	4687.640625
7981.944926	1.439542	0.526632	6013.458984
7981.945805	1.403731	0.526632	7247.337891
7981.946816	1.364777	0.526632	8627.126953
7981.947725	1.329697	0.526632	9835.822266
7981.948652	1.116134	0.526632	10870.478516
7981.949519	0.156522	0.526632	11006.183594
7981.950575	0.084675	0.526632	11095.600586
7981.951464	0.084738	0.526632	11170.932617
7981.952333	0.084763	0.526632	11244.591797
7981.953332	0.084855	0.526632	11329.361328
7981.954244	0.084902	0.526632	11406.791992
7981.955163	0.084792	0.526632	11484.715820
7981.956020	0.084814	0.526632	11557.401367
7981.957031	0.084785	0.526632	11643.119141
7981.957918	0.084738	0.526632	11718.281250
7982.992919	1.117035	0.459879	564.102661
7982.993889	1.534556	0.459879	2052.621582
7982.994759	1.517399	0.459879	3372.758301
7982.995800	1.471912	0.459879	4905.018066
7982.996849	1.428523	0.459879	6403.538574
7982.997746	1.392177	0.459879	7652.320801
7982.998677	1.356240	0.459879	8914.980469
7982.999751	1.316763	0.459879	10329.183594
7983.000694	0.636588	0.459879	10929.486328
7983.001561	0.089462	0.459879	11007.049805
7983.002617	0.084873	0.459879	11096.675781
7983.003631	0.084778	0.459879	11182.640625
7983.004525	0.084760	0.459879	11258.416016
7983.005489	0.084796	0.459879	11340.159180
7983.006533	0.084880	0.459879	11428.774414
7983.007453	0.084749	0.459879	11506.743164
7983.008313	0.084855	0.459879	11579.717773
7983.009379	0.084917	0.459879	11670.239258
7983.010385	0.084771	0.459879	11755.518555
7983.976926	1.072445	0.524530	489.034943
7983.977806	1.528279	0.524530	1833.920288
7983.978669	1.522244	0.524530	3147.616699
7983.979754	1.476885	0.524530	4750.036621
7983.980677	1.437989	0.524530	6077.300781
7983.981553	1.402240	0.524530	7305.663086
7983.982546	1.364564	0.524530	8660.675781
7983.983569	1.326185	0.524530	10017.363281
7983.984457	1.015876	0.524530	10919.461914
7983.985317	0.128335	0.524530	11029.830078
7983.986372	0.084818	0.524530	11119.313477
7983.987302	0.084851	0.524530	11198.224609
7983.988179	0.084895	0.524530	11272.677734
7983.989136	0.085001	0.524530	11354.023437
7983.990155	0.084822	0.524530	11440.457031
7983.991047	0.084836	0.524530	11516.130859
7983.991907	0.084734	0.524530	11589.001953
7983.992963	0.084990	0.524530	11678.751953
7983.993910	0.084792	0.524530	11759.050781
7985.022404	1.041215	0.471138	444.598633
7985.023447	1.533014	0.471138	2043.532227
7985.024340	1.517432	0.471138	3398.598633
7985.025205	1.478536	0.471138	4677.532715
7985.026265	1.435250	0.471138	6198.897949
7985.027188	1.396948	0.471138	7488.281250
7985.028103	1.361792	0.471138	8734.321289
7985.028986	1.328712	0.471138	9907.574219
7985.030016	0.947750	0.471138	10883.756836
7985.030916	0.109369	0.471138	10982.188477
7985.031790	0.084756	0.471138	11056.264648
7985.032725	0.084895	0.471138	11135.641602
7985.033711	0.084792	0.471138	11219.247070
7985.034639	0.084866	0.471138	11298.002930
7985.035502	0.084811	0.471138	11371.194336
7985.036542	0.084906	0.471138	11459.496094
7985.037427	0.084785	0.471138	11534.531250
7985.038289	0.084767	0.471138	11607.600586
7985.039152	0.084873	0.471138	11680.845703
7986.011082	1.049447	0.522620	460.707245
7986.011960	1.526737	0.522620	1801.182495
7986.012820	1.522211	0.522620	3110.283691
7986.013809	1.481118	0.522620	4575.109375
7986.014737	1.442311	0.522620	5913.573730
7986.015627	1.406151	0.522620	7165.048340
7986.016568	1.370332	0.522620	8454.531250
7986.017511	1.334509	0.522620	9712.973633
7986.018451	1.184484	0.522620	10826.388672
7986.019344	0.187463	0.522620	10993.793945
7986.020286	0.084705	0.522620	11073.585937
7986.021245	0.084851	0.522620	11154.958008
7986.022161	0.084811	0.522620	11232.644531
7986.023018	0.084840	0.522620	11305.352539
7986.023962	0.084829	0.522620	11385.431641
7986.024919	0.084774	0.522620	11466.560547
7986.025806	0.084822	0.522620	11541.797852
7986.026691	0.084778	0.522620	11616.826172
7986.027631	0.084814	0.522620	11696.551758
7987.053564	1.071379	0.491807	527.118652
7987.054492	1.531388	0.491807	1948.246704
7987.055399	1.518457	0.491807	3325.487305
7987.056282	1.479998	0.491807	4632.325195
7987.057224	1.440520	0.491807	5989.294922
7987.058159	1.401764	0.491807	7299.944336
7987.059081	1.366351	0.491807	8559.720703
7987.059946	1.333403	0.491807	9713.114258
7987.060917	1.136484	0.491807	10816.640625
7987.061871	0.156691	0.491807	10966.123047
7987.062754	0.084653	0.491807	11040.872070
7987.063675	0.084705	0.491807	11118.884766
7987.064609	0.084745	0.491807	11198.036133
7987.065512	0.084803	0.491807	11274.613281
7987.066399	0.084727	0.491807	11349.765625
7987.067312	0.084829	0.491807	11427.214844
7987.068266	0.084840	0.491807	11508.152344
7987.069158	0.084785	0.491807	11583.780273
7987.070070	0.084877	0.491807	11661.187500
7988.043193	1.026002	0.519131	436.050934
7988.044106	1.528231	0.519131	1831.326050
7988.045074	1.519069	0.519131	3301.784424
7988.045999	1.479228	0.519131	4670.070801
7988.046870	1.441747	0.519131	5925.832031
7988.047841	1.403126	0.519131	7288.267578
7988.048805	1.365996	0.519131	8605.087891
7988.049697	1.332209	0.519131	9793.418945
7988.050635	1.146742	0.519131	10869.062500
7988.051535	0.155530	0.519131	11009.039062
7988.052473	0.084661	0.519131	11088.451172
7988.053362	0.084855	0.519131	11163.886719
7988.054275	0.084862	0.519131	11241.366211
7988.055222	0.084840	0.519131	11321.709961
7988.056115	0.084829	0.519131	11397.461914
7988.057025	0.084906	0.519131	11474.726562
7988.057961	0.084767	0.519131	11554.068359
7988.058892	0.084917	0.519131	11633.125977
7988.059766	0.084833	0.519131	11707.269531
7989.087721	1.098146	0.473998	512.834106
7989.088651	1.531805	0.473998	1937.413086
7989.089530	1.520588	0.473998	3274.010254
7989.090455	1.480379	0.473998	4643.360352
7989.091424	1.439912	0.473998	6038.635254
7989.092349	1.402339	0.473998	7335.798828
7989.093220	1.367908	0.473998	8527.246094
7989.094186	1.332880	0.473998	9814.807617
7989.095108	1.112659	0.473998	10840.678711
7989.096027	0.153252	0.473998	10981.517578
7989.096891	0.084756	0.473998	11054.747070
7989.097848	0.084910	0.473998	11136.005859
7989.098797	0.084752	0.473998	11216.435547
7989.099693	0.084833	0.473998	11292.445312
7989.100596	0.084928	0.473998	11369.135742
7989.101554	0.084866	0.473998	11450.437500
7989.102474	0.084781	0.473998	11528.436523
7989.103336	0.084840	0.473998	11601.568359
7989.104254	0.084935	0.473998	11679.539062
7990.074850	1.051604	0.516247	485.841064
7990.075743	1.529348	0.516247	1851.548950
7990.076607	1.522474	0.516247	3166.966797
7990.077571	1.481678	0.516247	4595.304687
7990.078505	1.441329	0.516247	5941.506348
7990.079434	1.404166	0.516247	7245.976562
7990.080300	1.369336	0.516247	8431.821289
7990.081246	1.334088	0.516247	9693.869141
7990.082209	1.160614	0.516247	10811.540039
7990.083100	0.179396	0.516247	10971.381836
7990.084019	0.084767	0.516247	11049.282227
7990.084978	0.084902	0.516247	11130.703125
7990.085870	0.084858	0.516247	11206.396484
7990.086751	0.084939	0.516247	11281.227539
7990.087711	0.084902	0.516247	11362.733398
7990.088657	0.084965	0.516247	11443.110352
7990.089541	0.084895	0.516247	11518.157227
7990.090466	0.084957	0.516247	11596.743164
7990.091421	0.084858	0.516247	11677.783203
7991.120899	1.114343	0.476455	556.057312
7991.121860	1.532728	0.476455	2029.009033
7991.122768	1.516765	0.476455	3406.231934
7991.123654	1.477529	0.476455	4715.322754
7991.124615	1.437631	0.476455	6096.885742
7991.125553	1.399742	0.476455	7409.844238
7991.126434	1.365278	0.476455	8612.654297
7991.127403	1.330122	0.476455	9901.542969
7991.128327	1.055867	0.476455	10877.164062
7991.129249	0.132202	0.476455	10999.054687
7991.130108	0.084727	0.476455	11071.834961
7991.131085	0.084921	0.476455	11154.802734
7991.132040	0.084946	0.476455	11235.926758
7991.132915	0.084928	0.476455	11310.238281
7991.133820	0.084935	0.476455	11387.104492
7991.134774	0.084972	0.476455	11468.167969
7991.135702	0.084921	0.476455	11546.974609
7991.136577	0.084858	0.476455	11621.225586
7991.137489	0.084928	0.476455	11698.679687
7992.104886	1.028947	0.514386	434.215424
7992.105955	1.532303	0.514386	2072.247803
7992.106835	1.516663	0.514386	3406.910889
7992.107715	1.478075	0.514386	4707.616699
7992.108642	1.438898	0.514386	6041.474609
7992.109647	1.398688	0.514386	7447.155762
7992.110571	1.362770	0.514386	8706.355469
7992.111457	1.329789	0.514386	9884.548828
7992.112526	0.932054	0.514386	10880.915039
7992.113423	0.106300	0.514386	10976.266602
7992.114296	0.084771	0.514386	11050.271484
7992.115156	0.084866	0.514386	11123.255859
7992.116209	0.084910	0.514386	11212.666016
7992.117094	0.084862	0.514386	11287.768555
7992.117959	0.084847	0.514386	11361.161133
7992.118944	0.084950	0.514386	11444.836914
7992.119869	0.084836	0.514386	11523.310547
7992.120781	0.084943	0.514386	11600.778320
7992.121658	0.084950	0.514386	11675.279297
7993.154589	1.111223	0.467214	583.392151
7993.155650	1.535021	0.467214	2212.049072
7993.156559	1.511532	0.467214	3586.031738
7993.157425	1.471827	0.467214	4860.634277
7993.158538	1.426988	0.467214	6448.872559
7993.159519	1.387972	0.467214	7810.473633
7993.160388	1.354541	0.467214	8987.570312
7993.161480	1.314470	0.467214	10422.971680
7993.162512	0.439054	0.467214	10876.075195
7993.163401	0.085920	0.467214	10952.458008
7993.164343	0.084972	0.467214	11032.501953
7993.165389	0.084979	0.467214	11121.390625
7993.166328	0.084873	0.467214	11201.085937
7993.167190	0.084994	0.467214	11274.350586
7993.168236	0.085031	0.467214	11363.292969
7993.169243	0.084939	0.467214	11448.826172
7993.170126	0.084950	0.467214	11523.836914
7993.171090	0.084950	0.467214	11605.728516
7993.172134	0.085052	0.467214	11694.523437
7994.134615	1.176654	0.519393	684.812683
7994.135665	1.535610	0.519393	2297.203613
7994.136551	1.510631	0.519393	3635.622803
7994.137434	1.470546	0.519393	4934.114746
7994.138527	1.426545	0.519393	6493.329102
7994.139480	1.388313	0.519393	7816.391602
7994.140348	1.354907	0.519393	8992.451172
7994.141385	1.317034	0.519393	10358.214844
7994.142424	0.532390	0.519393	10911.368164
7994.143292	0.086862	0.519393	10986.763672
7994.144222	0.084855	0.519393	11065.678711
7994.145283	0.084917	0.519393	11155.775391
7994.146221	0.084818	0.519393	11235.334961
7994.147091	0.084921	0.519393	11309.215820
7994.148121	0.084968	0.519393	11396.733398
7994.149148	0.084954	0.519393	11483.980469
7994.150039	0.084873	0.519393	11559.602539
7994.150981	0.084976	0.519393	11639.649414
7994.152036	0.084979	0.519393	11729.302734
7995.188767	1.125736	0.455682	589.885742
7995.189682	1.533691	0.455682	1993.213379
7995.190557	1.519153	0.455682	3322.472168
7995.191567	1.475716	0.455682	4812.945801
7995.192547	1.433921	0.455682	6218.188477
7995.193431	1.398428	0.455682	7454.398437
7995.194295	1.363414	0.455682	8632.388672
7995.195387	1.324548	0.455682	10078.794922
7995.196307	0.929220	0.455682	10933.677734
7995.197163	0.111826	0.455682	11029.401367
7995.198263	0.084990	0.455682	11122.890625
7995.199261	0.084972	0.455682	11207.692383
7995.200137	0.084891	0.455682	11282.057617
7995.201115	0.085020	0.455682	11365.207031
7995.202168	0.084902	0.455682	11454.609375
7995.203068	0.084910	0.455682	11531.028320
7995.203931	0.084884	0.455682	11604.283203
7995.204986	0.085001	0.455682	11693.959961
7995.205961	0.084950	0.455682	11776.786133
7996.165129	1.101768	0.521391	553.087280
7996.166061	1.533417	0.521391	1982.231689
7996.166928	1.519047	0.521391	3299.245117
7996.168003	1.473010	0.521391	4882.730957
7996.169008	1.430764	0.521391	6320.648926
7996.169904	1.394579	0.521391	7570.191406
7996.170876	1.357874	0.521391	8890.044922
7996.171925	1.318813	0.521391	10273.480469
7996.172848	0.721941	0.521391	10939.832031
7996.173707	0.093259	0.521391	11019.941406
7996.174777	0.084946	0.521391	11110.833984
7996.175767	0.084895	0.521391	11194.879883
7996.176640	0.084899	0.521391	11268.996094
7996.177638	0.085005	0.521391	11353.831055
7996.178688	0.084976	0.521391	11443.055664
7996.179573	0.084833	0.521391	11518.132812
7996.180438	0.085038	0.521391	11591.690430
7996.181526	0.084957	0.521391	11684.124023
7996.182505	0.084891	0.521391	11767.232422
7997.222866	1.065868	0.444434	470.047729
7997.223791	1.529451	0.444434	1884.789551
7997.224659	1.520270	0.444434	3204.383789
7997.225711	1.476727	0.444434	4757.900879
7997.226597	1.439216	0.444434	6033.046875
7997.227474	1.403870	0.444434	7264.240234
7997.228473	1.365198	0.444434	8628.072266
7997.229407	1.329719	0.444434	9870.030273
7997.230331	1.103203	0.444434	10889.389648
7997.231200	0.152120	0.444434	11021.582031
7997.232238	0.084796	0.444434	11109.600586
7997.233126	0.084866	0.444434	11184.960937
7997.234000	0.084851	0.444434	11259.121094
7997.234990	0.085049	0.444434	11343.319336
7997.235939	0.084814	0.444434	11423.808594
7997.236858	0.084774	0.444434	11501.715820
7997.237716	0.084917	0.444434	11574.574219
7997.238738	0.084906	0.444434	11661.348633
7997.239633	0.084884	0.444434	11737.320312
7998.195261	1.139110	0.525778	615.119446
7998.196150	1.532618	0.525778	1977.617187
7998.197019	1.519149	0.525778	3297.757812
7998.197916	1.478928	0.525778	4624.356445
7998.198958	1.435994	0.525778	6120.662109
7998.199859	1.399600	0.525778	7381.701172
7998.200738	1.365688	0.525778	8582.141602
7998.201738	1.328881	0.525778	9911.022461
7998.202681	1.015082	0.525778	10868.244141
7998.203604	0.119480	0.525778	10978.524414
7998.204463	0.084818	0.525778	11051.382812
7998.205498	0.084829	0.525778	11139.180664
7998.206375	0.084847	0.525778	11213.591797
7998.207237	0.084921	0.525778	11286.792969
7998.208223	0.084851	0.525778	11370.456055
7998.209163	0.084844	0.525778	11450.208984
7998.210062	0.084774	0.525778	11526.420898
7998.210936	0.084924	0.525778	11600.644531
7998.211973	0.084910	0.525778	11688.696289
7999.255022	1.053732	0.451049	501.576294
7999.255944	1.531901	0.451049	1913.988647
7999.256865	1.518589	0.451049	3312.608887
7999.257753	1.480126	0.451049	4626.960449
7999.258708	1.439952	0.451049	6002.115234
7999.259650	1.402009	0.451049	7322.808105
7999.260536	1.367252	0.451049	8534.193359
7999.261473	1.332195	0.451049	9782.459961
7999.262426	1.095348	0.451049	10826.326172
7999.263352	0.144492	0.451049	10960.125977
7999.264238	0.084800	0.451049	11035.258789
7999.265194	0.084924	0.451049	11116.446289
7999.266124	0.084877	0.451049	11195.381836
7999.267007	0.084884	0.451049	11270.333984
7999.267878	0.084972	0.451049	11344.344727
7999.268926	0.084924	0.451049	11433.345703
7999.269850	0.084965	0.451049	11511.852539
7999.270770	0.084932	0.451049	11589.989258
7999.271629	0.084895	0.451049	11662.914062
8000.227769	1.025881	0.517710	431.896027
8000.228653	1.524708	0.517710	1779.738159
8000.229611	1.520702	0.517710	3236.570557
8000.230539	1.481005	0.517710	4610.942871
8000.231417	1.443625	0.517710	5878.446289
8000.232346	1.405957	0.517710	7184.580566
8000.233315	1.368431	0.517710	8510.590820
8000.234222	1.333989	0.517710	9720.519531
8000.235102	1.212722	0.517710	10787.714844
8000.236051	0.199266	0.517710	10976.818359
8000.236991	0.084803	0.517710	11056.533203
8000.237893	0.084855	0.517710	11133.072266
8000.238753	0.084858	0.517710	11206.050781
8000.239723	0.084851	0.517710	11288.356445
8000.240666	0.085001	0.517710	11368.512695
8000.241547	0.084829	0.517710	11443.247070
8000.242472	0.084921	0.517710	11521.798828
8000.243413	0.084891	0.517710	11601.681641
8000.244292	0.084917	0.517710	11676.323242
8001.286592	1.051340	0.457619	448.922333
8001.287670	1.532384	0.457619	2100.832275
8001.288670	1.510997	0.457619	3611.829590
8001.289554	1.472227	0.457619	4913.277832
8001.290554	1.430299	0.457619	6343.577148
8001.291612	1.388529	0.457619	7812.640625
8001.292508	1.353695	0.457619	9025.551758
8001.293398	1.319883	0.457619	10200.247070
8001.294504	0.580309	0.457619	10842.068359
8001.295465	0.086448	0.457619	10925.144531
8001.296331	0.084862	0.457619	10998.634766
8001.297362	0.085082	0.457619	11086.354492
8001.298391	0.084921	0.457619	11173.738281
8001.299277	0.084895	0.457619	11248.955078
8001.300208	0.084928	0.457619	11328.023437
8001.301259	0.084950	0.457619	11417.305664
8001.302206	0.084946	0.457619	11497.750000
8001.303065	0.084910	0.457619	11570.687500
8001.304121	0.084994	0.457619	11660.441406
8002.259897	1.027185	0.512719	431.417725
8002.260914	1.529879	0.512719	1987.304810
8002.261893	1.513905	0.512719	3469.417725
8002.262824	1.473860	0.512719	4841.581055
8002.263698	1.435580	0.512719	6096.277832
8002.264814	1.392876	0.512719	7650.727539
8002.265714	1.357639	0.512719	8872.602539
8002.266584	1.325479	0.512719	10025.768555
8002.267637	0.790631	0.512719	10858.302734
8002.268609	0.090780	0.512719	10946.541016
8002.269483	0.084800	0.512719	11020.656250
8002.270339	0.084932	0.512719	11093.357422
8002.271452	0.084913	0.512719	11187.866211
8002.272337	0.084844	0.512719	11262.953125
8002.273200	0.084891	0.512719	11336.214844
8002.274216	0.084987	0.512719	11422.561523
8002.275196	0.084822	0.512719	11505.686523
8002.276077	0.084877	0.512719	11580.462891
8002.276934	0.084877	0.512719	11653.202148
8003.318303	1.129080	0.453164	593.895874
8003.319191	1.531985	0.453164	1954.298340
8003.320120	1.518343	0.453164	3364.839355
8003.320982	1.479496	0.453164	4640.165039
8003.321964	1.439015	0.453164	6053.277832
8003.322897	1.401097	0.453164	7360.501953
8003.323785	1.366483	0.453164	8573.939453
8003.324671	1.333330	0.453164	9755.269531
8003.325617	1.146204	0.453164	10839.578125
8003.326570	0.151626	0.453164	10984.078125
8003.327456	0.084785	0.453164	11059.198242
8003.328381	0.084888	0.453164	11137.719727
8003.329329	0.084888	0.453164	11218.193359
8003.330202	0.084844	0.453164	11292.261719
8003.331152	0.084869	0.453164	11372.887695
8003.332087	0.084943	0.453164	11452.308594
8003.333000	0.084891	0.453164	11529.814453
8003.333886	0.084851	0.453164	11604.992187
8003.334820	0.084928	0.453164	11684.314453
8004.293105	1.074053	0.511031	509.100983
8004.293988	1.529744	0.511031	1859.864624
8004.294908	1.520563	0.511031	3258.782227
8004.295855	1.479207	0.511031	4659.590820
8004.296783	1.440062	0.511031	5995.968750
8004.297663	1.404265	0.511031	7231.722168
8004.298580	1.367783	0.511031	8485.979492
8004.299538	1.332356	0.511031	9762.376953
8004.300474	1.162060	0.511031	10850.065430
8004.301345	0.177638	0.511031	11004.788086
8004.302318	0.084811	0.511031	11087.308594
8004.303270	0.084913	0.511031	11168.146484
8004.304161	0.084939	0.511031	11243.827148
8004.305080	0.084891	0.511031	11321.842773
8004.305984	0.084994	0.511031	11398.677734
8004.306903	0.084877	0.511031	11476.679687
8004.307784	0.084943	0.511031	11551.513672
8004.308752	0.084910	0.511031	11633.706055
8004.309691	0.084950	0.511031	11713.473633
8005.348871	1.127944	0.448793	565.100098
8005.349830	1.532853	0.448793	2035.105957
8005.350758	1.516523	0.448793	3442.439697
8005.351622	1.477716	0.448793	4719.186523
8005.352587	1.437806	0.448793	6106.669922
8005.353535	1.399365	0.448793	7433.268066
8005.354434	1.364103	0.448793	8659.596680
8005.355349	1.330964	0.448793	9877.428711
8005.356269	1.066959	0.448793	10859.031250
8005.357204	0.132700	0.448793	10983.105469
8005.358065	0.084818	0.448793	11056.133789
8005.359030	0.084895	0.448793	11138.057617
8005.359973	0.084906	0.448793	11218.124023
8005.360861	0.084858	0.448793	11293.478516
8005.361795	0.084899	0.448793	11372.773437
8005.362737	0.084781	0.448793	11452.637695
8005.363631	0.084825	0.448793	11528.471680
8005.364518	0.084880	0.448793	11603.760742
8005.365427	0.084972	0.448793	11681.000000
8006.327752	1.039149	0.500815	449.951599
8006.328694	1.526268	0.500815	1887.696289
8006.329640	1.518915	0.500815	3324.589844
8006.330572	1.477983	0.500815	4702.070312
8006.331456	1.440813	0.500815	5975.749023
8006.332382	1.402727	0.500815	7274.674316
8006.333337	1.365289	0.500815	8578.525391
8006.334267	1.331308	0.500815	9816.642578
8006.335131	1.150023	0.500815	10810.262695
8006.336114	0.158555	0.500815	10966.122070
8006.337065	0.084727	0.500815	11046.697266
8006.337959	0.084877	0.500815	11122.577148
8006.338873	0.084906	0.500815	11200.181641
8006.339802	0.084844	0.500815	11279.001953
8006.340714	0.084851	0.500815	11356.385742
8006.341603	0.084910	0.500815	11431.870117
8006.342516	0.084932	0.500815	11509.413086
8006.343472	0.084880	0.500815	11590.558594
8006.344363	0.084866	0.500815	11666.173828
8007.378394	1.042782	0.452680	477.594147
8007.379342	1.530970	0.452680	1928.954102
8007.380303	1.517329	0.452680	3387.107422
8007.381176	1.478441	0.452680	4677.786621
8007.382091	1.439718	0.452680	5995.128418
8007.383048	1.401346	0.452680	7336.216797
8007.383974	1.365363	0.452680	8600.542969
8007.384855	1.332023	0.452680	9774.054687
8007.385832	1.101995	0.452680	10850.703125
8007.386791	0.136241	0.452680	10981.358398
8007.387682	0.084785	0.452680	11056.902344
8007.388598	0.084968	0.452680	11134.733398
8007.389514	0.084928	0.452680	11212.527344
8007.390466	0.084833	0.452680	11293.288086
8007.391341	0.084822	0.452680	11367.506836
8007.392246	0.084913	0.452680	11444.353516
8007.393194	0.084822	0.452680	11524.764648
8007.394087	0.084888	0.452680	11600.569336
8007.394997	0.084957	0.452680	11677.880859
8008.361405	1.042939	0.504158	444.292206
8008.362381	1.529484	0.504158	1937.068359
8008.363308	1.518622	0.504158	3344.830811
8008.364180	1.480393	0.504158	4635.733398
8008.365096	1.441619	0.504158	5956.255859
8008.366060	1.402559	0.504158	7308.322266
8008.366994	1.366296	0.504158	8584.443359
8008.367875	1.333180	0.504158	9758.974609
8008.368823	1.133130	0.504158	10833.181641
8008.369778	0.149648	0.504158	10976.095703
8008.370696	0.084781	0.504158	11053.924805
8008.371557	0.084866	0.504158	11126.994141
8008.372518	0.084877	0.504158	11208.560547
8008.373470	0.084814	0.504158	11289.303711
8008.374337	0.084888	0.504158	11362.901367
8008.375207	0.084818	0.504158	11436.693359
8008.376178	0.084928	0.504158	11519.158203
8008.377103	0.084847	0.504158	11597.641602
8008.377965	0.084895	0.504158	11670.821289
8009.408956	1.034088	0.463565	435.351105
8009.410007	1.532054	0.463565	2045.540283
8009.411020	1.511957	0.463565	3577.152588
8009.411913	1.472695	0.463565	4892.269531
8009.412886	1.432489	0.463565	6286.081543
8009.413921	1.390686	0.463565	7725.441406
8009.414847	1.354973	0.463565	8980.146484
8009.415713	1.321820	0.463565	10124.842773
8009.416810	0.665002	0.463565	10854.350586
8009.417790	0.087411	0.463565	10940.013672
8009.418662	0.084888	0.463565	11014.036133
8009.419658	0.085027	0.463565	11098.722656
8009.420704	0.084990	0.463565	11187.622070
8009.421584	0.084968	0.463565	11262.394531
8009.422451	0.084921	0.463565	11336.020508
8009.423534	0.084994	0.463565	11428.069336
8009.424499	0.084910	0.463565	11510.006836
8009.425377	0.084932	0.463565	11584.577148
8009.426365	0.084983	0.463565	11668.540039
8010.395072	1.030983	0.499904	439.198608
8010.396048	1.525316	0.499904	1927.907104
8010.397120	1.512810	0.499904	3549.639648
8010.398042	1.472120	0.499904	4906.934570
8010.398905	1.434759	0.499904	6145.131836
8010.399970	1.392213	0.499904	7627.838867
8010.400985	1.353391	0.499904	9001.531250
8010.401884	1.320593	0.499904	10188.744141
8010.402867	0.716250	0.499904	10892.818359
8010.403926	0.087792	0.499904	10985.790039
8010.404833	0.084833	0.499904	11062.733398
8010.405692	0.084902	0.499904	11135.664062
8010.406794	0.084994	0.499904	11229.327148
8010.407746	0.084913	0.499904	11310.165039
8010.408633	0.084862	0.499904	11385.437500
8010.409635	0.084968	0.499904	11470.576172
8010.410688	0.084800	0.499904	11559.870117
8010.411577	0.084855	0.499904	11635.305664
8010.412435	0.084928	0.499904	11708.173828
8011.440153	1.115273	0.456028	564.328369
8011.441101	1.533871	0.456028	2018.437866
8011.441973	1.518175	0.456028	3342.286621
8011.443021	1.473182	0.456028	4886.181641
8011.444058	1.429852	0.456028	6368.938477
8011.444944	1.393824	0.456028	7603.867187
8011.445882	1.357460	0.456028	8877.164062
8011.446967	1.317989	0.456028	10307.182617
8011.447893	0.678138	0.456028	10935.138672
8011.448755	0.091252	0.456028	11013.797852
8011.449796	0.084957	0.456028	11102.238281
8011.450803	0.084891	0.456028	11187.723633
8011.451695	0.084924	0.456028	11263.476562
8011.452657	0.084972	0.456028	11345.219727
8011.453716	0.085027	0.456028	11435.262695
8011.454639	0.084906	0.456028	11513.630859
8011.455502	0.084987	0.456028	11586.974609
8011.456566	0.085012	0.456028	11677.427734
8011.457558	0.084895	0.456028	11761.643555
8012.429385	1.142259	0.497495	647.661133
8012.430439	1.535446	0.497495	2266.020752
8012.431337	1.510540	0.497495	3622.485352
8012.432197	1.470656	0.497495	4887.249023
8012.433290	1.426553	0.497495	6446.471191
8012.434267	1.387950	0.497495	7802.499023
8012.435138	1.354526	0.497495	8982.291016
8012.436183	1.315854	0.497495	10357.359375
8012.437233	0.480817	0.497495	10862.216797
8012.438125	0.086199	0.497495	10939.106445
8012.439040	0.084972	0.497495	11016.855469
8012.440120	0.085045	0.497495	11108.704102
8012.441064	0.084939	0.497495	11188.886719
8012.441929	0.084913	0.497495	11262.336914
8012.442985	0.085056	0.497495	11352.156250
8012.444000	0.084979	0.497495	11438.410156
8012.444886	0.084913	0.497495	11513.643555
8012.445829	0.084979	0.497495	11593.779297
8012.446867	0.084946	0.497495	11681.953125
8013.470227	1.104401	0.461325	555.513550
8013.471125	1.532186	0.461325	1931.416870
8013.471997	1.518955	0.461325	3255.945801
8013.473065	1.473662	0.461325	4829.816895
8013.474058	1.432079	0.461325	6251.871094
8013.474953	1.396154	0.461325	7501.428711
8013.475951	1.358035	0.461325	8856.747070
8013.477010	1.319169	0.461325	10253.747070
8013.477913	0.756595	0.461325	10936.953125
8013.478778	0.094662	0.461325	11018.835937
8013.479872	0.085016	0.461325	11111.843750
8013.480839	0.084884	0.461325	11193.926758
8013.481705	0.084847	0.461325	11267.404297
8013.482752	0.084994	0.461325	11356.392578
8013.483788	0.084968	0.461325	11444.419922
8013.484686	0.084943	0.461325	11520.698242
8013.485600	0.084983	0.461325	11598.373047
8013.486652	0.084998	0.461325	11687.790039
8013.487593	0.084862	0.461325	11767.645508
8014.461888	1.038534	0.500468	443.453979
8014.462762	1.526027	0.500468	1777.201294
8014.463711	1.521921	0.500468	3221.504639
8014.464618	1.482048	0.500468	4565.722656
8014.465537	1.443589	0.500468	5892.380859
8014.466415	1.407426	0.500468	7128.100586
8014.467376	1.369464	0.500468	8444.155273
8014.468319	1.334425	0.500468	9702.517578
8014.469250	1.209880	0.500468	10828.916016
8014.470121	0.210590	0.500468	11012.339844
8014.471092	0.084833	0.500468	11094.712891
8014.472032	0.084895	0.500468	11174.514648
8014.472912	0.084888	0.500468	11249.215820
8014.473774	0.084917	0.500468	11322.414062
8014.474746	0.084917	0.500468	11404.953125
8014.475675	0.084957	0.500468	11483.878906
8014.476538	0.084910	0.500468	11557.156250
8014.477553	0.084851	0.500468	11643.280273
8014.478491	0.084811	0.500468	11722.833008
8015.502271	1.037904	0.461434	444.222931
8015.503136	1.525232	0.461434	1763.548584
8015.504136	1.519856	0.461434	3283.404297
8015.505070	1.479357	0.461434	4665.123535
8015.505953	1.441915	0.461434	5938.334961
8015.506968	1.401101	0.461434	7360.452637
8015.507875	1.365480	0.461434	8598.943359
8015.508800	1.331228	0.461434	9830.329102
8015.509671	1.153539	0.461434	10835.061523
8015.510669	0.144924	0.461434	10979.696289
8015.511576	0.084829	0.461434	11056.636719
8015.512451	0.084880	0.461434	11130.907227
8015.513452	0.084847	0.461434	11215.839844
8015.514327	0.084800	0.461434	11290.040039
8015.515229	0.084858	0.461434	11366.582031
8015.516116	0.084891	0.461434	11441.880859
8015.517067	0.084818	0.461434	11522.542969
8015.517989	0.084891	0.461434	11600.812500
8015.518910	0.084814	0.461434	11678.926758
8016.492987	1.037369	0.489725	438.807251
8016.493969	1.531564	0.489725	1942.802734
8016.494892	1.518490	0.489725	3344.369141
8016.495777	1.479679	0.489725	4653.884766
8016.496671	1.441739	0.489725	5942.799805
8016.497628	1.402925	0.489725	7285.398926
8016.498571	1.366523	0.489725	8574.030273
8016.499448	1.333572	0.489725	9743.572266
8016.500360	1.157362	0.489725	10799.085937
8016.501325	0.168497	0.489725	10961.685547
8016.502248	0.084756	0.489725	11039.915039
8016.503125	0.084785	0.489725	11114.271484
8016.504077	0.084877	0.489725	11195.074219
8016.505002	0.084880	0.489725	11273.588867
8016.505885	0.084803	0.489725	11348.470703
8016.506953	0.084917	0.489725	11439.162109
8016.507877	0.084921	0.489725	11517.628906
8016.508790	0.084935	0.489725	11595.174805
8016.509657	0.084792	0.489725	11668.689453
8017.535547	1.141659	0.460362	631.337402
8017.536610	1.535105	0.460362	2263.154053
8017.537501	1.511074	0.460362	3609.520996
8017.538370	1.471176	0.460362	4887.972656
8017.539481	1.427051	0.460362	6473.425781
8017.540447	1.388225	0.460362	7814.451172
8017.541314	1.354709	0.460362	8988.984375
8017.542378	1.315979	0.460362	10389.185547
8017.543426	0.478575	0.460362	10890.732422
8017.544301	0.086133	0.460362	10966.098633
8017.545235	0.084950	0.460362	11045.441406
8017.546297	0.084990	0.460362	11135.701172
8017.547233	0.084851	0.460362	11215.122070
8017.548100	0.084946	0.460362	11288.770508
8017.549124	0.084943	0.460362	11375.751953
8017.550140	0.084899	0.460362	11462.008789
8017.551030	0.084917	0.460362	11537.584961
8017.551966	0.085012	0.460362	11617.156250
8017.553038	0.085031	0.460362	11708.308594
8018.521527	1.041881	0.492815	437.590057
8018.522623	1.533204	0.492815	2117.981934
8018.523596	1.511166	0.492815	3588.346191
8018.524482	1.472721	0.492815	4893.176758
8018.525485	1.431028	0.492815	6328.497559
8018.526554	1.388386	0.492815	7812.682617
8018.527450	1.353505	0.492815	9025.422852
8018.528342	1.319839	0.492815	10202.718750
8018.529445	0.581708	0.492815	10844.342773
8018.530388	0.086730	0.492815	10926.128906
8018.531256	0.084796	0.492815	10999.732422
8018.532305	0.085016	0.492815	11088.914062
8018.533327	0.084906	0.492815	11175.688477
8018.534219	0.084866	0.492815	11251.388672
8018.535140	0.084921	0.492815	11329.600586
8018.536201	0.084902	0.492815	11419.681641
8018.537133	0.084880	0.492815	11498.790039
8018.537993	0.084811	0.492815	11571.727539
8018.539044	0.084957	0.492815	11661.017578
8019.571141	1.041519	0.441836	449.936035
8019.572164	1.530780	0.441836	2015.924072
8019.573189	1.512682	0.441836	3566.422852
8019.574079	1.473080	0.441836	4877.463867
8019.575013	1.434023	0.441836	6216.841797
8019.576076	1.391327	0.441836	7695.822266
8019.577016	1.355233	0.441836	8969.741211
8019.577884	1.322772	0.441836	10117.907227
8019.578952	0.703638	0.441836	10869.392578
8019.579973	0.087740	0.441836	10958.975586
8019.580850	0.084847	0.441836	11033.386719
8019.581802	0.084902	0.441836	11114.213867
8019.582861	0.084976	0.441836	11204.203125
8019.583773	0.084932	0.441836	11281.661133
8019.584635	0.084935	0.441836	11354.875000
8019.585694	0.085045	0.441836	11444.937500
8019.586699	0.084906	0.441836	11530.267578
8019.587583	0.084924	0.441836	11605.340820
8019.588534	0.085016	0.441836	11686.190430
8020.550094	1.054354	0.500259	466.024597
8020.550965	1.527045	0.500259	1796.080566
8020.551974	1.518223	0.500259	3327.967285
8020.553031	1.472959	0.500259	4884.884766
8020.553924	1.435122	0.500259	6166.448730
8020.554814	1.397842	0.500259	7410.527832
8020.555912	1.356654	0.500259	8900.133789
8020.556866	1.321750	0.500259	10161.083984
8020.557740	0.894163	0.500259	10942.582031
8020.558784	0.094424	0.500259	11041.160156
8020.559808	0.084858	0.500259	11128.054687
8020.560697	0.084939	0.500259	11203.565430
8020.561633	0.084917	0.500259	11283.047852
8020.562684	0.085049	0.500259	11372.434570
8020.563625	0.084858	0.500259	11452.286133
8020.564486	0.084891	0.500259	11525.377930
8020.565535	0.084979	0.500259	11614.521484
8020.566543	0.084888	0.500259	11700.087891
8020.567427	0.084935	0.500259	11775.170898
8021.607890	1.062762	0.422097	471.866486
8021.608766	1.527250	0.422097	1809.737183
8021.609752	1.520090	0.422097	3308.546387
8021.610683	1.479100	0.422097	4685.588867
8021.611619	1.440037	0.422097	6033.462891
8021.612483	1.404126	0.422097	7246.627930
8021.613435	1.367406	0.422097	8548.398437
8021.614374	1.331602	0.422097	9798.772461
8021.615295	1.153363	0.422097	10861.019531
8021.616166	0.173701	0.422097	11012.313477
8021.617134	0.084814	0.422097	11094.414062
8021.618080	0.084928	0.422097	11174.755859
8021.618964	0.084880	0.422097	11249.790039
8021.619873	0.084844	0.422097	11326.913086
8021.620824	0.084950	0.422097	11407.700195
8021.621748	0.084891	0.422097	11486.139648
8021.622614	0.084855	0.422097	11559.624023
8021.623539	0.084884	0.422097	11638.141602
8021.624472	0.084877	0.422097	11717.332031
8022.578629	1.044690	0.506402	447.127319
8022.579582	1.526873	0.506402	1902.236816
8022.580483	1.520295	0.506402	3272.022949
8022.581404	1.480551	0.506402	4635.609863
8022.582274	1.443234	0.506402	5891.223145
8022.583226	1.403679	0.506402	7227.525879
8022.584155	1.367893	0.506402	8498.298828
8022.585052	1.334652	0.506402	9695.481445
8022.586030	1.150228	0.506402	10820.404297
8022.586950	0.162034	0.506402	10969.475586
8022.587874	0.084869	0.506402	11047.894531
8022.588748	0.084913	0.506402	11122.108398
8022.589693	0.084943	0.506402	11202.378906
8022.590630	0.084917	0.506402	11281.946289
8022.591528	0.084895	0.506402	11358.181641
8022.592492	0.084979	0.506402	11440.101562
8022.593434	0.084917	0.506402	11520.093750
8022.594332	0.084873	0.506402	11596.309570
8022.595213	0.084946	0.506402	11671.147461
8023.644089	1.029778	0.413989	433.536499
8023.645025	1.525452	0.413989	1861.359253
8023.646072	1.515784	0.413989	3448.384766
8023.646970	1.476043	0.413989	4773.871094
8023.647838	1.439312	0.413989	6023.193359
8023.648879	1.397263	0.413989	7477.744141
8023.649853	1.359825	0.413989	8802.213867
8023.650731	1.327145	0.413989	9967.447266
8023.651627	0.974473	0.413989	10840.575195
8023.652714	0.102869	0.413989	10952.393555
8023.653589	0.084866	0.413989	11026.651367
8023.654447	0.084862	0.413989	11099.462891
8023.655487	0.084957	0.413989	11187.818359
8023.656445	0.084858	0.413989	11269.112305
8023.657351	0.084855	0.413989	11345.990234
8023.658227	0.084983	0.413989	11420.435547
8023.659319	0.084935	0.413989	11513.184570
8023.660228	0.084811	0.413989	11590.277344
8023.661094	0.084840	0.413989	11663.749023
8024.605768	1.158981	0.523510	658.301025
8024.606678	1.534061	0.523510	2054.296875
8024.607600	1.515934	0.523510	3451.987793
8024.608464	1.476255	0.523510	4727.472168
8024.609495	1.433903	0.523510	6205.825684
8024.610403	1.397322	0.523510	7474.593750
8024.611283	1.363480	0.523510	8674.456055
8024.612262	1.327599	0.523510	9974.175781
8024.613219	0.977655	0.523510	10909.791992
8024.614143	0.110233	0.523510	11011.647461
8024.615003	0.084789	0.523510	11084.565430
8024.616027	0.084924	0.523510	11171.528320
8024.616910	0.084924	0.523510	11246.516602
8024.617784	0.084928	0.523510	11320.744141
8024.618712	0.084921	0.523510	11399.550781
8024.619701	0.084796	0.523510	11483.414062
8024.620603	0.084847	0.523510	11559.946289
8024.621486	0.084902	0.523510	11634.915039
8024.622465	0.084965	0.523510	11718.095703
8025.680844	1.048037	0.403301	452.752045
8025.681722	1.527052	0.403301	1793.503784
8025.682591	1.523489	0.403301	3117.415527
8025.683578	1.482144	0.403301	4580.291016
8025.684532	1.441860	0.403301	5955.825684
8025.685423	1.405045	0.403301	7207.720703
8025.686314	1.370299	0.403301	8428.657227
8025.687258	1.334458	0.403301	9688.385742
8025.688194	1.212843	0.403301	10823.606445
8025.689056	0.213483	0.403301	11007.628906
8025.690012	0.084792	0.403301	11088.690430
8025.690955	0.084836	0.403301	11168.691406
8025.691845	0.084928	0.403301	11244.277344
8025.692754	0.084954	0.403301	11321.500000
8025.693688	0.084906	0.403301	11400.801758
8025.694611	0.084836	0.403301	11479.105469
8025.695502	0.084917	0.403301	11554.766602
8025.696432	0.084858	0.403301	11633.684570
8025.697379	0.084825	0.403301	11714.014648
8026.633231	1.090419	0.531639	539.757263
8026.634163	1.531575	0.531639	1967.184814
8026.635039	1.518885	0.531639	3297.728516
8026.635916	1.479895	0.531639	4595.596680
8026.636868	1.439502	0.531639	5966.002441
8026.637820	1.401530	0.531639	7300.258789
8026.638721	1.366626	0.531639	8531.588867
8026.639635	1.332590	0.531639	9749.576172
8026.640598	1.136334	0.531639	10843.866211
8026.641525	0.148799	0.531639	10981.802734
8026.642395	0.084716	0.531639	11055.504883
8026.643390	0.084833	0.531639	11139.913086
8026.644326	0.084847	0.531639	11219.330078
8026.645252	0.084811	0.531639	11297.865234
8026.646112	0.084774	0.531639	11370.771484
8026.647080	0.084760	0.531639	11452.818359
8026.648012	0.084785	0.531639	11531.837891
8026.648903	0.084855	0.531639	11607.443359
8026.649814	0.084851	0.531639	11684.743164
8027.716539	1.032612	0.387538	436.795013
8027.717504	1.529220	0.387538	1912.492187
8027.718436	1.518977	0.387538	3328.178711
8027.719321	1.480085	0.387538	4638.054199
8027.720252	1.440179	0.387538	5978.861328
8027.721209	1.401636	0.387538	7320.226562
8027.722140	1.365941	0.387538	8591.917969
8027.723012	1.332920	0.387538	9754.224609
8027.723985	1.127443	0.387538	10851.226562
8027.724951	0.150146	0.387538	10996.267578
8027.725826	0.084734	0.387538	11070.410156
8027.726710	0.084840	0.387538	11145.409180
8027.727659	0.084847	0.387538	11225.929687
8027.728604	0.084847	0.387538	11306.110352
8027.729496	0.084825	0.387538	11381.774414
8027.730401	0.084888	0.387538	11458.597656
8027.731353	0.084836	0.387538	11539.362305
8027.732273	0.084899	0.387538	11617.468750
8027.733138	0.084847	0.387538	11690.861328
8028.662267	1.084332	0.548784	525.901123
8028.663147	1.529227	0.548784	1871.621094
8028.664068	1.518878	0.548784	3270.507812
8028.665141	1.472757	0.548784	4850.776367
8028.666090	1.433426	0.548784	6211.098145
8028.666961	1.397860	0.548784	7428.634277
8028.668008	1.357522	0.548784	8849.959961
8028.669031	1.319839	0.548784	10200.155273
8028.669932	0.816749	0.548784	10936.046875
8028.670885	0.098002	0.548784	11029.442383
8028.671932	0.084855	0.548784	11118.285156
8028.672865	0.084694	0.548784	11197.304687
8028.673728	0.084910	0.548784	11270.582031
8028.674792	0.085042	0.548784	11361.066406
8028.675794	0.084851	0.548784	11446.086914
8028.676685	0.084858	0.548784	11521.695312
8028.677660	0.085005	0.548784	11604.575195
8028.678693	0.084906	0.548784	11692.283203
8028.679604	0.084741	0.548784	11769.482422
8029.750807	1.097545	0.388795	567.430847
8029.751869	1.534838	0.388795	2197.428467
8029.752808	1.510499	0.388795	3615.787109
8029.753679	1.471300	0.388795	4897.289551
8029.754767	1.427022	0.388795	6449.888672
8029.755759	1.386713	0.388795	7825.507812
8029.756646	1.353113	0.388795	9025.718750
8029.757643	1.316708	0.388795	10338.476562
8029.758699	0.508835	0.388795	10875.806641
8029.759592	0.086309	0.388795	10952.879883
8029.760451	0.084880	0.388795	11025.791992
8029.761558	0.084906	0.388795	11119.783203
8029.762526	0.084877	0.388795	11201.944336
8029.763382	0.084800	0.388795	11274.533203
8029.764440	0.084961	0.388795	11364.421875
8029.765493	0.084822	0.388795	11453.739258
8029.766362	0.084796	0.388795	11527.426758
8029.767284	0.084921	0.388795	11605.723633
8029.768351	0.084924	0.388795	11696.337891
8030.693307	1.031349	0.549948	439.354645
8030.694313	1.529381	0.549948	1977.911987
8030.695368	1.512056	0.549948	3573.130859
8030.696266	1.472142	0.549948	4895.114746
8030.697157	1.433672	0.549948	6172.516602
8030.698258	1.390269	0.549948	7703.202148
8030.699210	1.354087	0.549948	8992.292969
8030.700079	1.321740	0.549948	10140.884766
8030.701140	0.682039	0.549948	10864.527344
8030.702160	0.087209	0.549948	10953.481445
8030.703047	0.084844	0.549948	11028.738281
8030.703998	0.084976	0.549948	11109.549805
8030.705027	0.084910	0.549948	11196.921875
8030.705957	0.084840	0.549948	11275.823242
8030.706815	0.084906	0.549948	11348.672852
8030.707874	0.084946	0.549948	11438.630859
8030.708891	0.084844	0.549948	11524.916992
8030.709770	0.084789	0.549948	11599.446289
8030.710735	0.084957	0.549948	11681.429687
8031.784457	1.100684	0.381762	543.737671
8031.785459	1.535043	0.381762	2081.850586
8031.786353	1.515835	0.381762	3437.006836
8031.787333	1.473384	0.381762	4880.922852
8031.788384	1.429058	0.381762	6382.862305
8031.789308	1.391638	0.381762	7668.735840
8031.790175	1.357529	0.381762	8845.713867
8031.791256	1.318608	0.381762	10271.129883
8031.792239	0.634072	0.381762	10894.422852
8031.793128	0.089374	0.381762	10973.875977
8031.794125	0.084954	0.381762	11058.575195
8031.795170	0.084869	0.381762	11147.263672
8031.796060	0.084884	0.381762	11222.810547
8031.796915	0.084950	0.381762	11295.442383
8031.798025	0.084880	0.381762	11389.659180
8031.798984	0.084840	0.381762	11471.020508
8031.799839	0.084935	0.381762	11543.640625
8031.800885	0.084972	0.381762	11632.521484
8031.801946	0.084902	0.381762	11722.602539
8032.723383	1.035861	0.555620	437.133148
8032.724469	1.532889	0.555620	2101.851074
8032.725464	1.510726	0.555620	3605.023926
8032.726363	1.471527	0.555620	4927.926758
8032.727362	1.430427	0.555620	6356.923828
8032.728400	1.388708	0.555620	7798.403320
8032.729296	1.353907	0.555620	9011.503906
8032.730161	1.320374	0.555620	10153.626953
8032.731260	0.663534	0.555620	10882.850586
8032.732220	0.087913	0.555620	10967.247070
8032.733081	0.084847	0.555620	11040.300781
8032.734192	0.084950	0.555620	11134.679687
8032.735219	0.084836	0.555620	11221.806641
8032.736102	0.084851	0.555620	11296.730469
8032.737030	0.084902	0.555620	11375.519531
8032.738092	0.085005	0.555620	11465.794922
8032.739017	0.084877	0.555620	11544.305664
8032.739887	0.084811	0.555620	11618.090820
8032.740904	0.084888	0.555620	11704.421875
8033.815994	1.026918	0.396727	432.332336
8033.816925	1.525023	0.396727	1852.128906
8033.817972	1.515242	0.396727	3438.586914
8033.818921	1.473962	0.396727	4837.376953
8033.819791	1.437103	0.396727	6087.656738
8033.820839	1.395055	0.396727	7549.674316
8033.821864	1.355896	0.396727	8939.467773
8033.822760	1.322684	0.396727	10124.592773
8033.823721	0.813450	0.396727	10906.318359
8033.824767	0.090861	0.396727	11001.358398
8033.825683	0.084803	0.396727	11079.038086
8033.826543	0.084884	0.396727	11152.038086
8033.827609	0.084943	0.396727	11242.586914
8033.828614	0.084946	0.396727	11327.958008
8033.829489	0.084858	0.396727	11402.208984
8033.830458	0.084976	0.396727	11484.550781
8033.831502	0.085034	0.396727	11573.326172
8033.832413	0.084895	0.396727	11650.666016
8033.833268	0.084899	0.396727	11723.253906
8034.756535	1.037505	0.547020	437.827087
8034.757621	1.532399	0.547020	2102.011963
8034.758611	1.511082	0.547020	3597.982666
8034.759492	1.472380	0.547020	4895.149902
8034.760493	1.431295	0.547020	6327.876465
8034.761539	1.389444	0.547020	7781.235352
8034.762434	1.354340	0.547020	8993.369141
8034.763302	1.320524	0.547020	10139.583984
8034.764411	0.631476	0.547020	10839.890625
8034.765372	0.087045	0.547020	10923.541016
8034.766239	0.084811	0.547020	10997.072266
8034.767276	0.085001	0.547020	11085.218750
8034.768320	0.084913	0.547020	11173.868164
8034.769205	0.084847	0.547020	11248.958008
8034.770100	0.084921	0.547020	11324.961914
8034.771178	0.084917	0.547020	11416.501953
8034.772126	0.084811	0.547020	11496.902344
8034.772993	0.084902	0.547020	11570.512695
8034.774027	0.084957	0.547020	11658.358398
8035.848202	1.101064	0.388231	541.723694
8035.849096	1.531271	0.388231	1910.679687
8035.849973	1.520830	0.388231	3244.447754
8035.850911	1.480345	0.388231	4633.011719
8035.851924	1.437415	0.388231	6089.112793
8035.852840	1.400596	0.388231	7372.058594
8035.853707	1.366608	0.388231	8556.907227
8035.854778	1.327833	0.388231	9979.016602
8035.855664	1.035315	0.388231	10896.305664
8035.856541	0.131107	0.388231	11011.287109
8035.857398	0.084701	0.388231	11083.875977
8035.858460	0.084858	0.388231	11173.995117
8035.859353	0.084792	0.388231	11249.714844
8035.860226	0.084866	0.388231	11323.802734
8035.861215	0.084884	0.388231	11407.752930
8035.862163	0.084752	0.388231	11488.097656
8035.863087	0.084785	0.388231	11566.439453
8035.863948	0.084895	0.388231	11639.534180
8035.864983	0.084935	0.388231	11727.442383
8036.788261	1.132786	0.550701	603.774780
8036.789147	1.531816	0.550701	1960.964111
8036.790053	1.518113	0.550701	3336.374268
8036.790936	1.478862	0.550701	4642.209961
8036.791911	1.438451	0.550701	6044.699707
8036.792841	1.400896	0.550701	7347.533203
8036.793731	1.366344	0.550701	8563.579102
8036.794642	1.332708	0.550701	9777.675781
8036.795601	1.108601	0.550701	10840.824219
8036.796527	0.147883	0.550701	10977.763672
8036.797388	0.084723	0.550701	11050.709961
8036.798408	0.084880	0.550701	11137.288086
8036.799291	0.084902	0.550701	11212.256836
8036.800207	0.084939	0.550701	11290.060547
8036.801063	0.084825	0.550701	11362.670898
8036.802035	0.084884	0.550701	11445.177734
8036.802957	0.084866	0.550701	11523.423828
8036.803840	0.084858	0.550701	11598.353516
8036.804768	0.084910	0.550701	11677.149414
8037.881272	1.036534	0.380517	436.380981
8037.882255	1.530520	0.380517	1940.882202
8037.883189	1.518149	0.380517	3358.833740
8037.884075	1.479412	0.380517	4669.592773
8037.885001	1.441014	0.380517	6003.972168
8037.885946	1.402211	0.380517	7329.061035
8037.886870	1.365787	0.380517	8591.048828
8037.887754	1.332678	0.380517	9769.136719
8037.888669	1.137777	0.380517	10810.203125
8037.889630	0.159591	0.380517	10963.570312
8037.890544	0.084774	0.380517	11041.053711
8037.891416	0.084847	0.380517	11115.041016
8037.892388	0.084763	0.380517	11197.430664
8037.893325	0.084825	0.380517	11276.912109
8037.894233	0.084829	0.380517	11353.936523
8037.895093	0.084771	0.380517	11426.838867
8037.896057	0.084840	0.380517	11508.625000
8037.896994	0.084829	0.380517	11588.109375
8037.897866	0.084844	0.380517	11662.092773
8038.820324	1.055577	0.548840	486.621185
8038.821216	1.528978	0.548840	1850.469849
8038.822137	1.520764	0.548840	3251.093750
8038.823083	1.478778	0.548840	4650.017578
8038.824034	1.438949	0.548840	6018.458008
8038.824930	1.402643	0.548840	7275.226074
8038.825860	1.366216	0.548840	8545.806641
8038.826816	1.330858	0.548840	9818.107422
8038.827744	1.125011	0.548840	10862.117187
8038.828615	0.163151	0.548840	11004.221680
8038.829567	0.084763	0.548840	11084.916016
8038.830521	0.084833	0.548840	11165.846680
8038.831414	0.084745	0.548840	11241.523437
8038.832314	0.084792	0.548840	11317.836914
8038.833250	0.084800	0.548840	11397.209961
8038.834198	0.084803	0.548840	11477.603516
8038.835092	0.084781	0.548840	11553.398437
8038.836011	0.084785	0.548840	11631.316406
8038.836954	0.084877	0.548840	11711.355469
8039.912947	1.065692	0.375482	511.532257
8039.914036	1.533907	0.375482	2181.957520
8039.914980	1.510862	0.375482	3608.210937
8039.915842	1.472245	0.375482	4877.286133
8039.916894	1.428483	0.375482	6380.049805
8039.917932	1.387335	0.375482	7820.103516
8039.918815	1.353380	0.375482	9015.138672
8039.919776	1.318491	0.375482	10282.208984
8039.920831	0.547614	0.375482	10859.941406
8039.921757	0.086411	0.375482	10939.958008
8039.922619	0.084847	0.375482	11013.096680
8039.923690	0.085001	0.375482	11104.132812
8039.924680	0.084716	0.375482	11188.000977
8039.925571	0.084771	0.375482	11263.531250
8039.926535	0.084961	0.375482	11345.433594
8039.927581	0.084873	0.375482	11434.210937
8039.928502	0.084752	0.375482	11512.267578
8039.929362	0.084855	0.375482	11585.242187
8039.930442	0.084965	0.375482	11677.003906
8040.853006	1.086694	0.548639	553.127441
8040.854091	1.534263	0.548639	2217.802246
8040.855000	1.510602	0.548639	3590.939209
8040.855876	1.471428	0.548639	4879.910156
8040.856945	1.427593	0.548639	6406.006836
8040.857952	1.386958	0.548639	7802.673828
8040.858846	1.353120	0.548639	9012.363281
8040.859832	1.317037	0.548639	10310.961914
8040.860895	0.515522	0.548639	10858.961914
8040.861797	0.086147	0.548639	10936.666992
8040.862659	0.084869	0.548639	11009.824219
8040.863769	0.084913	0.548639	11104.078125
8040.864741	0.084855	0.548639	11186.556641
8040.865609	0.084807	0.548639	11260.168945
8040.866677	0.084895	0.548639	11350.836914
8040.867715	0.084910	0.548639	11438.973633
8040.868608	0.084763	0.548639	11514.666992
8040.869528	0.084906	0.548639	11592.780273
8040.870598	0.084924	0.548639	11683.649414
8041.943630	1.166521	0.384195	670.749573
8041.944617	1.535808	0.384195	2186.592041
8041.945546	1.511814	0.384195	3591.067383
8041.946412	1.471959	0.384195	4865.784180
8041.947523	1.428571	0.384195	6452.925781
8041.948408	1.391814	0.384195	7684.681152
8041.949271	1.358379	0.384195	8856.961914
8041.950295	1.320333	0.384195	10208.983398
8041.951276	0.717623	0.384195	10912.971680
8041.952159	0.091754	0.384195	10993.990234
8041.953016	0.084708	0.384195	11066.584961
8041.954122	0.084789	0.384195	11160.361328
8041.955033	0.084771	0.384195	11237.586914
8041.955908	0.084789	0.384195	11311.777344
8041.956891	0.084965	0.384195	11395.297852
8041.957878	0.084811	0.384195	11479.005859
8041.958766	0.084803	0.384195	11554.311523
8041.959627	0.084763	0.384195	11627.292969
8041.960708	0.084858	0.384195	11719.025391
8042.886592	1.031704	0.535136	441.569336
8042.887580	1.526422	0.535136	1949.674316
8042.888467	1.518691	0.535136	3296.753418
8042.889386	1.479082	0.535136	4656.029785
8042.890270	1.441315	0.535136	5930.151855
8042.891242	1.402478	0.535136	7293.360352
8042.892175	1.365747	0.535136	8567.602539
8042.893069	1.332634	0.535136	9758.977539
8042.894090	1.080795	0.535136	10862.468750
8042.894993	0.139479	0.535136	10988.417969
8042.895908	0.084767	0.535136	11065.979492
8042.896775	0.084833	0.535136	11139.529297
8042.897774	0.084899	0.535136	11224.342773
8042.898695	0.084880	0.535136	11302.517578
8042.899595	0.084965	0.535136	11378.985352
8042.900467	0.084829	0.535136	11452.956055
8042.901422	0.084880	0.535136	11534.016602
8042.902348	0.084855	0.535136	11612.591797
8042.903225	0.084862	0.535136	11687.015625
8043.974587	1.036714	0.383788	436.456512
8043.975573	1.529725	0.383788	1944.765747
8043.976506	1.518069	0.383788	3361.124023
8043.977389	1.479243	0.383788	4667.295898
8043.978297	1.441183	0.383788	5975.889648
8043.979236	1.402562	0.383788	7292.895508
8043.980169	1.365956	0.383788	8567.332031
8043.981064	1.333048	0.383788	9760.410156
8043.981977	1.154110	0.383788	10814.112305
8043.982940	0.160627	0.383788	10968.796875
8043.983871	0.084818	0.383788	11047.762695
8043.984735	0.084807	0.383788	11121.036133
8043.985706	0.084822	0.383788	11203.398437
8043.986656	0.084895	0.383788	11284.048828
8043.987541	0.084785	0.383788	11359.083984
8043.988444	0.084818	0.383788	11435.674805
8043.989359	0.084811	0.383788	11513.276367
8043.990279	0.084858	0.383788	11591.345703
8043.991157	0.084752	0.383788	11665.757812
8044.920277	1.054523	0.534020	467.153534
8044.921143	1.526049	0.534020	1788.711670
8044.922128	1.519578	0.534020	3285.495605
8044.923043	1.478972	0.534020	4638.754883
8044.923931	1.441732	0.534020	5919.013184
8044.924840	1.405107	0.534020	7196.255859
8044.925793	1.368058	0.534020	8500.014648
8044.926734	1.332759	0.534020	9754.140625
8044.927616	1.211129	0.534020	10822.356445
8044.928620	0.145386	0.534020	10968.324219
8044.929564	0.084723	0.534020	11048.302734
8044.930483	0.084796	0.534020	11126.230469
8044.931344	0.084807	0.534020	11199.249023
8044.932312	0.084877	0.534020	11281.410156
8044.933252	0.084727	0.534020	11361.052734
8044.934118	0.084767	0.534020	11434.460937
8044.934988	0.084785	0.534020	11508.223633
8044.935957	0.084767	0.534020	11590.362305
8044.936904	0.084873	0.534020	11670.737305
8046.005741	1.056654	0.378507	491.344086
8046.006637	1.529854	0.378507	1862.092896
8046.007515	1.521632	0.378507	3198.085937
8046.008432	1.483004	0.378507	4558.000977
8046.009372	1.441886	0.378507	5913.374023
8046.010320	1.403731	0.378507	7244.110352
8046.011197	1.369534	0.378507	8445.191406
8046.012124	1.334967	0.378507	9682.706055
8046.013082	1.178917	0.378507	10812.108398
8046.013967	0.188060	0.378507	10978.541992
8046.014880	0.084749	0.378507	11055.916992
8046.015824	0.084789	0.378507	11135.958008
8046.016741	0.084796	0.378507	11213.715820
8046.017618	0.084763	0.378507	11288.052734
8046.018558	0.084844	0.378507	11367.805664
8046.019510	0.084862	0.378507	11448.594727
8046.020432	0.084825	0.378507	11526.803711
8046.021293	0.084767	0.378507	11599.788086
8046.022263	0.084840	0.378507	11682.083008
8046.955453	1.048685	0.516247	447.788635
8046.956558	1.532703	0.516247	2141.425049
8046.957520	1.511660	0.516247	3595.642090
8046.958384	1.473292	0.516247	4868.566406
8046.959428	1.430215	0.516247	6361.710937
8046.960464	1.388555	0.516247	7800.253418
8046.961343	1.354138	0.516247	8990.541016
8046.962278	1.319835	0.516247	10224.586914
8046.963359	0.587992	0.516247	10860.206055
8046.964294	0.086891	0.516247	10941.449219
8046.965161	0.084840	0.516247	11015.005859
8046.966187	0.084943	0.516247	11102.157227
8046.967207	0.084895	0.516247	11188.750000
8046.968100	0.084796	0.516247	11264.472656
8046.969047	0.084950	0.516247	11344.919922
8046.970087	0.084939	0.516247	11433.256836
8046.971021	0.084741	0.516247	11512.405273
8046.971882	0.084932	0.516247	11585.531250
8046.972939	0.084939	0.516247	11675.311523
8048.034248	1.045514	0.383764	455.844055
8048.035123	1.526495	0.383764	1791.527588
8048.035985	1.523518	0.383764	3104.800049
8048.037046	1.479207	0.383764	4674.238281
8048.037938	1.441238	0.383764	5959.822266
8048.038817	1.405441	0.383764	7195.204590
8048.039770	1.368556	0.383764	8499.438477
8048.040765	1.331565	0.383764	9824.345703
8048.041694	1.125377	0.383764	10869.821289
8048.042564	0.163118	0.383764	11011.733398
8048.043617	0.084833	0.383764	11101.062500
8048.044499	0.084760	0.383764	11175.820312
8048.045373	0.084811	0.383764	11249.945312
8048.046253	0.084891	0.383764	11324.649414
8048.047276	0.084814	0.383764	11411.415039
8048.048172	0.084807	0.383764	11487.402344
8048.049046	0.084884	0.383764	11561.590820
8048.050035	0.084946	0.383764	11645.602539
8048.050961	0.084840	0.383764	11724.164062
8048.990238	1.090001	0.521432	571.160645
8048.991141	1.531597	0.521432	1954.192383
8048.992074	1.517519	0.521432	3370.038086
8048.992938	1.478943	0.521432	4647.844727
8048.993881	1.438242	0.521432	6004.107422
8048.994838	1.400281	0.521432	7344.175781
8048.995761	1.364608	0.521432	8603.708984
8048.996636	1.331733	0.521432	9768.975586
8048.997609	1.102181	0.521432	10841.398437
8048.998573	0.135630	0.521432	10972.145508
8048.999455	0.084705	0.521432	11046.854492
8049.000356	0.084730	0.521432	11123.196289
8049.001271	0.084760	0.521432	11200.750977
8049.002193	0.084803	0.521432	11278.939453
8049.003050	0.084807	0.521432	11351.619141
8049.004031	0.084811	0.521432	11434.818359
8049.004966	0.084756	0.521432	11514.065430
8049.005849	0.084756	0.521432	11588.905273
8049.006747	0.084884	0.521432	11665.130859
8050.061840	1.121777	0.389891	557.523315
8050.062744	1.532054	0.389891	1942.500488
8050.063640	1.519318	0.389891	3303.809082
8050.064565	1.478522	0.389891	4671.441406
8050.065530	1.438359	0.389891	6059.458008
8050.066425	1.401980	0.389891	7314.229980
8050.067343	1.366655	0.389891	8568.819336
8050.068304	1.331001	0.389891	9847.911133
8050.069232	1.115922	0.389891	10883.486328
8050.070102	0.158954	0.389891	11021.776367
8050.071055	0.084708	0.389891	11102.502930
8050.071996	0.084869	0.389891	11182.365234
8050.072923	0.084844	0.389891	11261.015625
8050.073780	0.084825	0.389891	11333.710937
8050.074736	0.084836	0.389891	11414.814453
8050.075689	0.084760	0.389891	11495.589844
8050.076576	0.084866	0.389891	11570.866211
8050.077481	0.084785	0.389891	11647.596680
8050.078420	0.084807	0.389891	11727.230469
8051.026368	1.030833	0.499252	441.196320
8051.027233	1.524895	0.499252	1760.230469
8051.028217	1.520544	0.499252	3256.446289
8051.029174	1.479291	0.499252	4672.127441
8051.030066	1.441124	0.499252	5957.610352
8051.030976	1.404749	0.499252	7235.931641
8051.031918	1.367040	0.499252	8523.683594
8051.032850	1.332781	0.499252	9765.834961
8051.033713	1.181572	0.499252	10785.531250
8051.034673	0.177407	0.499252	10955.841797
8051.035628	0.084803	0.499252	11036.829102
8051.036516	0.084818	0.499252	11112.147461
8051.037432	0.084811	0.499252	11189.833984
8051.038389	0.084829	0.499252	11271.015625
8051.039301	0.084822	0.499252	11348.373047
8051.040188	0.084771	0.499252	11423.564453
8051.041110	0.084829	0.499252	11501.777344
8051.042060	0.084752	0.499252	11582.291992
8051.042980	0.084836	0.499252	11660.341797
8052.089384	1.121316	0.401202	580.841675
8052.090340	1.534365	0.401202	2047.694824
8052.091203	1.517567	0.401202	3357.355225
8052.092254	1.472501	0.401202	4904.954102
8052.093291	1.429215	0.401202	6387.050293
8052.094166	1.393184	0.401202	7606.085937
8052.095105	1.357126	0.401202	8880.427734
8052.096171	1.317949	0.401202	10285.361328
8052.097114	0.673652	0.401202	10920.615234
8052.097982	0.090743	0.401202	10999.380859
8052.099008	0.084910	0.401202	11086.498047
8052.100038	0.084836	0.401202	11173.879883
8052.100926	0.084785	0.401202	11249.168945
8052.101864	0.084829	0.401202	11328.738281
8052.102917	0.084855	0.401202	11418.089844
8052.103847	0.084818	0.401202	11496.970703
8052.104708	0.084774	0.401202	11569.960937
8052.105766	0.084873	0.401202	11659.756836
8052.106755	0.084800	0.401202	11743.624023
8053.063629	1.042163	0.477785	458.551727
8053.064492	1.525573	0.477785	1775.120850
8053.065538	1.516487	0.477785	3361.366211
8053.066588	1.471776	0.477785	4906.731445
8053.067469	1.434364	0.477785	6170.406250
8053.068425	1.396194	0.477785	7505.167480
8053.069493	1.354911	0.477785	8952.211914
8053.070427	1.320341	0.477785	10185.410156
8053.071303	0.846401	0.477785	10926.857422
8053.072356	0.091483	0.477785	11023.189453
8053.073357	0.084741	0.477785	11108.015625
8053.074238	0.084884	0.477785	11182.798828
8053.075191	0.084943	0.477785	11263.749023
8053.076242	0.084833	0.477785	11352.908203
8053.077156	0.084844	0.477785	11430.455078
8053.078017	0.084913	0.477785	11503.565430
8053.079094	0.084961	0.477785	11595.068359
8053.080072	0.084840	0.477785	11678.041992
8053.080957	0.084774	0.477785	11753.067383
8054.117822	1.039405	0.409501	441.747314
8054.118885	1.531794	0.409501	2070.044922
8054.119901	1.510792	0.409501	3605.009766
8054.120792	1.471688	0.409501	4916.284180
8054.121773	1.431372	0.409501	6320.459961
8054.122818	1.389119	0.409501	7772.088867
8054.123731	1.353842	0.409501	9008.146484
8054.124593	1.320908	0.409501	10146.769531
8054.125687	0.654664	0.409501	10862.972656
8054.126678	0.086895	0.409501	10949.084961
8054.127555	0.084734	0.409501	11023.396484
8054.128531	0.084851	0.409501	11106.210937
8054.129584	0.084781	0.409501	11195.486328
8054.130489	0.084836	0.409501	11272.263672
8054.131348	0.084906	0.409501	11345.198242
8054.132446	0.084932	0.409501	11438.453125
8054.133421	0.084767	0.409501	11521.100586
8054.134287	0.084855	0.409501	11594.584961
8054.135325	0.084954	0.409501	11682.766602
8055.099861	1.068541	0.469321	479.775024
8055.100744	1.528044	0.469321	1829.038208
8055.101728	1.518486	0.469321	3323.228516
8055.102788	1.472677	0.469321	4884.266113
8055.103698	1.434104	0.469321	6189.300781
8055.104564	1.397809	0.469321	7399.803223
8055.105668	1.356456	0.469321	8897.331055
8055.106653	1.320535	0.469321	10198.057617
8055.107529	0.858274	0.469321	10949.905273
8055.108627	0.090179	0.469321	11048.921875
8055.109656	0.084774	0.469321	11136.154297
8055.110549	0.084873	0.469321	11211.946289
8055.111474	0.084895	0.469321	11290.474609
8055.112539	0.084965	0.469321	11380.961914
8055.113472	0.084818	0.469321	11460.097656
8055.114333	0.084880	0.469321	11533.179687
8055.115386	0.084866	0.469321	11622.542969
8055.116389	0.084796	0.469321	11707.593750
8055.117269	0.084796	0.469321	11782.213867
8056.146416	1.094249	0.420337	516.485657
8056.147307	1.529670	0.420337	1879.421875
8056.148174	1.520522	0.420337	3197.714844
8056.149278	1.474867	0.420337	4825.967773
8056.150193	1.435909	0.420337	6139.824707
8056.151072	1.400493	0.420337	7370.858398
8056.152083	1.362111	0.420337	8747.952148
8056.153086	1.324552	0.420337	10076.477539
8056.153984	0.958667	0.420337	10937.360352
8056.154839	0.116462	0.420337	11036.935547
8056.155892	0.084866	0.420337	11126.298828
8056.156816	0.084781	0.420337	11204.636719
8056.157693	0.084847	0.420337	11279.047852
8056.158644	0.084965	0.420337	11359.849609
8056.159655	0.084935	0.420337	11445.718750
8056.160543	0.084884	0.420337	11521.095703
8056.161401	0.084906	0.420337	11593.945312
8056.162450	0.084917	0.420337	11683.023437
8056.163382	0.084822	0.420337	11762.077148
8057.133520	1.055416	0.463847	466.494019
8057.134386	1.525986	0.463847	1787.998169
8057.135494	1.514304	0.463847	3465.847168
8057.136476	1.472135	0.463847	4911.483887
8057.137338	1.435074	0.463847	6148.518066
8057.138398	1.392100	0.463847	7624.143555
8057.139439	1.352604	0.463847	9032.204102
8057.140337	1.319473	0.463847	10217.090820
8057.141285	0.742515	0.463847	10920.995117
8057.142344	0.088099	0.463847	11014.291992
8057.143281	0.084822	0.463847	11093.769531
8057.144147	0.084869	0.463847	11167.266602
8057.145205	0.084990	0.463847	11257.186523
8057.146204	0.084803	0.463847	11341.905273
8057.147091	0.084814	0.463847	11417.135742
8057.148045	0.085001	0.463847	11498.226562
8057.149090	0.084994	0.463847	11587.044922
8057.150023	0.084840	0.463847	11666.201172
8057.150887	0.085005	0.463847	11739.645508
8058.176003	1.097882	0.429026	536.864380
8058.176887	1.530839	0.429026	1890.125732
8058.177831	1.518267	0.429026	3323.369629
8058.178889	1.472421	0.429026	4881.190430
8058.179833	1.432917	0.429026	6233.864258
8058.180703	1.397267	0.429026	7449.486328
8058.181763	1.356654	0.429026	8887.540039
8058.182780	1.319304	0.429026	10229.272461
8058.183669	0.803822	0.429026	10943.870117
8058.184644	0.097072	0.429026	11038.514648
8058.185696	0.084847	0.429026	11127.774414
8058.186618	0.084807	0.429026	11205.966797
8058.187476	0.084803	0.429026	11278.728516
8058.188528	0.084910	0.429026	11368.053711
8058.189528	0.084906	0.429026	11452.959961
8058.190393	0.084858	0.429026	11526.362305
8058.191355	0.084913	0.429026	11608.048828
8058.192400	0.084946	0.429026	11696.817383
8058.193314	0.084836	0.429026	11774.357422
8059.167687	1.046539	0.466695	458.384216
8059.168768	1.533007	0.466695	2115.564209
8059.169715	1.512239	0.466695	3547.654297
8059.170590	1.473519	0.466695	4836.983398
8059.171642	1.429622	0.466695	6340.945312
8059.172669	1.388643	0.466695	7767.081055
8059.173563	1.354263	0.466695	8977.791992
8059.174520	1.319421	0.466695	10240.478516
8059.175575	0.598279	0.466695	10871.663086
8059.176505	0.086997	0.466695	10952.570312
8059.177367	0.084902	0.466695	11025.755859
8059.178428	0.085023	0.466695	11115.965820
8059.179418	0.084840	0.466695	11199.957031
8059.180308	0.084829	0.466695	11275.455078
8059.181282	0.084906	0.466695	11358.153320
8059.182334	0.084800	0.466695	11447.362305
8059.183234	0.084814	0.466695	11523.695312
8059.184091	0.084847	0.466695	11596.409180
8059.185159	0.084869	0.466695	11687.049805
