time (s)	coil I (A)	last det (V)	int current (uC)
6741.830181	1.122334	0.278507	569.023315
6741.831189	1.522449	0.278507	2103.651611
6741.832085	1.501402	0.278507	3448.908203
6741.833077	1.460145	0.278507	4897.372070
6741.834120	1.418130	0.278507	6376.481445
6741.835025	1.381970	0.278507	7627.164551
6741.835895	1.347975	0.278507	8799.902344
6741.837002	0.599645	0.278507	9463.708984
6741.837969	0.087660	0.278507	9548.476562
6741.838827	0.085898	0.278507	9622.177734
6741.839901	0.085946	0.278507	9714.483398
6741.840938	0.086001	0.278507	9803.666016
6741.841818	0.085836	0.278507	9879.202148
6741.842721	0.085950	0.278507	9956.814453
6741.843783	0.086001	0.278507	10048.147461
6741.844730	0.085953	0.278507	10129.544922
6741.845588	0.085983	0.278507	10203.318359
6741.846598	0.086162	0.278507	10290.341797
6742.897640	1.074170	0.265355	500.563171
6742.898517	1.516154	0.265355	1830.229736
6742.899487	1.506332	0.265355	3291.371582
6742.900531	1.462050	0.265355	4817.751465
6742.901455	1.424524	0.265355	6134.011719
6742.902330	1.389078	0.265355	7349.455078
6742.903419	1.348868	0.265355	8818.373047
6742.904426	0.682566	0.265355	9505.716797
6742.905320	0.091121	0.265355	9587.178711
6742.906305	0.085913	0.265355	9671.802734
6742.907369	0.085917	0.265355	9763.217773
6742.908275	0.085942	0.265355	9841.082031
6742.909137	0.085854	0.265355	9915.088867
6742.910239	0.085957	0.265355	10009.813477
6742.911219	0.085792	0.265355	10093.889648
6742.912083	0.085781	0.265355	10168.004883
6742.913166	0.086034	0.265355	10261.179687
6742.914195	0.085964	0.265355	10349.636719
6743.884739	1.037095	0.279518	446.987823
6743.885612	1.513455	0.279518	1768.233643
6743.886599	1.506998	0.279518	3255.641113
6743.887610	1.464628	0.279518	4736.379883
6743.888503	1.428084	0.279518	6011.658203
6743.889369	1.392828	0.279518	7217.847656
6743.890456	1.353186	0.279518	8688.760742
6743.891381	0.931849	0.279518	9550.721680
6743.892254	0.110464	0.279518	9647.156250
6743.893248	0.085906	0.279518	9732.546875
6743.894255	0.085957	0.279518	9819.105469
6743.895130	0.085994	0.279518	9894.349609
6743.895994	0.085986	0.279518	9968.641602
6743.897047	0.086034	0.279518	10059.235352
6743.897975	0.085931	0.279518	10138.979492
6743.898854	0.085964	0.279518	10214.541992
6743.899814	0.086005	0.279518	10297.106445
6743.900836	0.085920	0.279518	10384.916992
6744.954337	1.065535	0.287942	476.294006
6744.955225	1.515297	0.287942	1821.877441
6744.956086	1.510096	0.287942	3122.070312
6744.957178	1.465247	0.287942	4722.119629
6744.958080	1.427014	0.287942	6009.286621
6744.959004	1.391250	0.287942	7294.801758
6744.959871	1.356859	0.287942	8471.198242
6744.960934	0.951892	0.287942	9483.059570
6744.961834	0.108047	0.287942	9580.301758
6744.962703	0.085829	0.287942	9654.886719
6744.963711	0.086019	0.287942	9741.593750
6744.964633	0.085906	0.287942	9820.798828
6744.965553	0.085895	0.287942	9899.822266
6744.966414	0.085880	0.287942	9973.764648
6744.967456	0.085968	0.287942	10063.343750
6744.968339	0.085946	0.287942	10139.234375
6744.969202	0.085836	0.287942	10213.310547
6744.970162	0.085876	0.287942	10295.751953
6745.941432	1.020355	0.277065	427.528839
6745.942365	1.511660	0.277065	1837.907837
6745.943430	1.501392	0.277065	3436.889648
6745.944375	1.461914	0.277065	4818.398437
6745.945254	1.425703	0.277065	6071.591797
6745.946309	1.384585	0.277065	7532.329102
6745.947337	1.346257	0.277065	8916.281250
6745.948234	0.737662	0.277065	9577.964844
6745.949201	0.093761	0.277065	9668.631836
6745.950256	0.085972	0.277065	9759.332031
6745.951176	0.085942	0.277065	9838.399414
6745.952038	0.085902	0.277065	9912.447266
6745.953100	0.085975	0.277065	10003.752930
6745.954086	0.085898	0.277065	10088.449219
6745.954974	0.085928	0.277065	10164.752930
6745.955964	0.085994	0.277065	10249.886719
6745.957003	0.085928	0.277065	10339.166016
6745.957904	0.085858	0.277065	10416.524414
6747.009558	1.109864	0.307950	558.261841
6747.010571	1.521870	0.307950	2099.916260
6747.011464	1.501611	0.307950	3440.855225
6747.012436	1.460867	0.307950	4860.817383
6747.013500	1.417555	0.307950	6369.095703
6747.014425	1.381425	0.307950	7646.913574
6747.015292	1.348030	0.307950	8815.655273
6747.016385	0.592192	0.307950	9462.921875
6747.017380	0.087074	0.307950	9549.560547
6747.018273	0.085891	0.307950	9626.261719
6747.019270	0.085983	0.307950	9711.986328
6747.020321	0.085961	0.307950	9802.331055
6747.021215	0.085887	0.307950	9879.114258
6747.022071	0.085953	0.307950	9952.690430
6747.023153	0.086012	0.307950	10045.755859
6747.024114	0.085913	0.307950	10128.318359
6747.024976	0.085906	0.307950	10202.369141
6747.026042	0.086019	0.307950	10294.065430
6747.997634	1.031744	0.277863	444.681824
6747.998499	1.512286	0.277863	1752.809570
6747.999584	1.502827	0.277863	3383.376953
6748.000578	1.461108	0.277863	4835.718750
6748.001471	1.425000	0.277863	6108.243652
6748.002469	1.386182	0.277863	7491.652832
6748.003515	1.347015	0.277863	8900.630859
6748.004419	0.742097	0.277863	9571.486328
6748.005276	0.094830	0.277863	9652.755859
6748.006370	0.085961	0.277863	9746.796875
6748.007326	0.085869	0.277863	9828.887695
6748.008196	0.085873	0.277863	9903.596680
6748.009213	0.086008	0.277863	9991.067383
6748.010267	0.085931	0.277863	10081.638672
6748.011141	0.085876	0.277863	10156.694336
6748.012023	0.085931	0.277863	10232.485352
6748.013117	0.086063	0.277863	10326.638672
6748.014084	0.085836	0.277863	10409.642578
6749.067209	1.054962	0.299539	462.073425
6749.068092	1.514396	0.299539	1799.284912
6749.069095	1.504992	0.299539	3308.791504
6749.070153	1.461628	0.299539	4855.194336
6749.071047	1.424476	0.299539	6128.676270
6749.071942	1.388375	0.299539	7371.271973
6749.073027	1.348495	0.299539	8834.388672
6749.073986	0.748638	0.299539	9552.332031
6749.074849	0.094493	0.299539	9633.879883
6749.075880	0.085884	0.299539	9722.425781
6749.076915	0.085924	0.299539	9811.357422
6749.077801	0.085796	0.299539	9887.373047
6749.078730	0.085950	0.299539	9967.220703
6749.079781	0.085876	0.299539	10057.476562
6749.080722	0.085961	0.299539	10138.365234
6749.081579	0.085983	0.299539	10212.052734
6749.082625	0.085961	0.299539	10301.967773
6749.083635	0.085942	0.299539	10388.769531
6750.057408	1.031909	0.293750	442.689056
6750.058280	1.512869	0.293750	1761.910522
6750.059146	1.510331	0.293750	3069.856934
6750.060193	1.468315	0.293750	4607.183105
6750.061084	1.431746	0.293750	5882.868652
6750.061963	1.396685	0.293750	7110.554199
6750.062938	1.360210	0.293750	8436.758789
6750.063915	1.093956	0.293750	9505.554687
6750.064844	0.135776	0.293750	9631.691406
6750.065702	0.085730	0.293750	9705.248047
6750.066724	0.085865	0.293750	9793.002930
6750.067622	0.085986	0.293750	9870.218750
6750.068496	0.085851	0.293750	9945.251953
6750.069376	0.085972	0.293750	10020.907227
6750.070410	0.085906	0.293750	10109.733398
6750.071303	0.085891	0.293750	10186.434570
6750.072179	0.085950	0.293750	10261.726562
6750.073184	0.086034	0.293750	10348.190430
6751.121960	1.084878	0.304881	579.324768
6751.123021	1.521537	0.304881	2193.675293
6751.123950	1.497433	0.304881	3584.790527
6751.124815	1.459907	0.304881	4847.610352
6751.125868	1.417540	0.304881	6340.280273
6751.126879	1.378242	0.304881	7733.683105
6751.127771	1.345177	0.304881	8933.581055
6751.128762	0.604666	0.304881	9532.804687
6751.129821	0.087107	0.304881	9625.050781
6751.130730	0.085844	0.304881	9703.083008
6751.131590	0.085986	0.304881	9777.031250
6751.132690	0.086056	0.304881	9871.692383
6751.133648	0.085891	0.304881	9953.975586
6751.134532	0.085953	0.304881	10029.958008
6751.135522	0.085986	0.304881	10115.083984
6751.136582	0.085917	0.304881	10206.155273
6751.137480	0.085825	0.304881	10283.226562
6751.138338	0.086019	0.304881	10357.031250
6752.116722	1.087320	0.296953	518.651855
6752.117600	1.516388	0.296953	1850.040527
6752.118580	1.505537	0.296953	3325.466797
6752.119639	1.461039	0.296953	4872.707031
6752.120553	1.423345	0.296953	6173.644043
6752.121414	1.388156	0.296953	7368.845703
6752.122494	1.348594	0.296953	8825.327148
6752.123497	0.678885	0.296953	9506.249023
6752.124387	0.091256	0.296953	9587.466797
6752.125375	0.085913	0.296953	9672.348633
6752.126423	0.086001	0.296953	9762.477539
6752.127324	0.085917	0.296953	9839.888672
6752.128182	0.085964	0.296953	9913.646484
6752.129278	0.086038	0.296953	10007.943359
6752.130236	0.085891	0.296953	10090.226562
6752.131118	0.085858	0.296953	10165.953125
6752.132106	0.086085	0.296953	10251.004883
6752.133169	0.085942	0.296953	10342.361328
6753.177025	1.030203	0.303761	442.987122
6753.177890	1.512759	0.303761	1751.523437
6753.178957	1.503713	0.303761	3355.985596
6753.179975	1.460892	0.303761	4843.173828
6753.180869	1.424502	0.303761	6116.678711
6753.181844	1.386709	0.303761	7468.719727
6753.182884	1.347415	0.303761	8870.031250
6753.183799	0.760631	0.303761	9566.008789
6753.184661	0.095804	0.303761	9648.591797
6753.185738	0.085906	0.303761	9741.112305
6753.186731	0.085931	0.303761	9826.442383
6753.187612	0.085946	0.303761	9902.161133
6753.188602	0.085997	0.303761	9987.298828
6753.189649	0.085928	0.303761	10077.265625
6753.190546	0.085884	0.303761	10154.303711
6753.191404	0.085898	0.303761	10228.004883
6753.192492	0.085979	0.303761	10321.549805
6753.193461	0.085884	0.303761	10404.771484
6754.175020	1.079784	0.306061	583.083374
6754.176083	1.521383	0.306061	2200.313477
6754.177007	1.497378	0.306061	3583.890625
6754.177871	1.459625	0.306061	4845.006836
6754.178927	1.417222	0.306061	6341.592773
6754.179932	1.377982	0.306061	7726.464844
6754.180828	1.345038	0.306061	8931.619141
6754.181821	0.598663	0.306061	9526.091797
6754.182877	0.087180	0.306061	9618.154297
6754.183788	0.085854	0.306061	9696.368164
6754.184652	0.086052	0.306061	9770.717773
6754.185756	0.086060	0.306061	9865.727539
6754.186721	0.085942	0.306061	9948.662109
6754.187590	0.086001	0.306061	10023.396484
6754.188671	0.086158	0.306061	10116.534180
6754.189709	0.085994	0.306061	10205.795898
6754.190602	0.085994	0.306061	10282.587891
6754.191524	0.086082	0.306061	10361.955078
6755.235252	1.026090	0.317501	429.931732
6755.236303	1.519340	0.317501	2026.757812
6755.237186	1.504244	0.317501	3355.005371
6755.238060	1.467235	0.317501	4637.369141
6755.238988	1.428955	0.317501	5963.439453
6755.239986	1.389814	0.317501	7350.474121
6755.240912	1.354907	0.317501	8605.118164
6755.241796	1.064209	0.317501	9545.878906
6755.242797	0.116063	0.317501	9662.058594
6755.243721	0.085829	0.317501	9741.364258
6755.244601	0.086023	0.317501	9817.064453
6755.245461	0.086027	0.317501	9891.046875
6755.246520	0.085895	0.317501	9982.009766
6755.247406	0.085961	0.317501	10058.170898
6755.248274	0.085972	0.317501	10132.793945
6755.249276	0.085986	0.317501	10218.952148
6755.250192	0.085913	0.317501	10297.648437
6755.251057	0.085939	0.317501	10371.985352
6756.231759	1.156527	0.307410	660.377014
6756.232811	1.522093	0.307410	2261.619385
6756.233697	1.497788	0.307410	3588.659668
6756.234609	1.458970	0.307410	4919.240234
6756.235694	1.415511	0.307410	6455.070312
6756.236646	1.378520	0.307410	7767.421875
6756.237508	1.345902	0.307410	8927.589844
6756.238553	0.572194	0.307410	9525.532227
6756.239581	0.087023	0.307410	9614.991211
6756.240454	0.085887	0.307410	9689.970703
6756.241396	0.086019	0.307410	9771.000977
6756.242448	0.086001	0.307410	9861.473633
6756.243388	0.085986	0.307410	9942.300781
6756.244252	0.085909	0.307410	10016.526367
6756.245296	0.086027	0.307410	10106.337891
6756.246302	0.085917	0.307410	10192.770508
6756.247197	0.085876	0.307410	10269.629883
6756.248155	0.086034	0.307410	10352.050781
6757.293506	1.030693	0.328922	443.198181
6757.294368	1.512034	0.328922	1746.571289
6757.295470	1.502197	0.328922	3401.992676
6757.296441	1.461566	0.328922	4821.173340
6757.297315	1.426011	0.328922	6067.506836
6757.298341	1.385599	0.328922	7489.131836
6757.299403	1.346104	0.328922	8918.693359
6757.300306	0.724589	0.328922	9572.997070
6757.301240	0.093431	0.328922	9660.261719
6757.302301	0.085990	0.328922	9751.497070
6757.303236	0.085869	0.328922	9831.785156
6757.304104	0.085942	0.328922	9906.382812
6757.305171	0.086133	0.328922	9998.286133
6757.306192	0.085964	0.328922	10086.055664
6757.307078	0.085972	0.328922	10162.226562
6757.308028	0.086045	0.328922	10243.968750
6757.309064	0.086052	0.328922	10333.119141
6757.309987	0.085968	0.328922	10412.467773
6758.288899	1.089939	0.316095	541.699707
6758.289826	1.519442	0.316095	1950.222656
6758.290692	1.506002	0.316095	3254.420410
6758.291751	1.461962	0.316095	4802.637695
6758.292774	1.420657	0.316095	6255.969727
6758.293667	1.385497	0.316095	7493.218262
6758.294628	1.349919	0.316095	8790.491211
6758.295692	0.656071	0.316095	9488.549805
6758.296617	0.089246	0.316095	9571.101562
6758.297478	0.085858	0.316095	9645.025391
6758.298554	0.086016	0.316095	9737.578125
6758.299534	0.085851	0.316095	9821.711914
6758.300412	0.085847	0.316095	9897.085937
6758.301403	0.085990	0.316095	9982.301758
6758.302454	0.085865	0.316095	10072.545898
6758.303351	0.085884	0.316095	10149.583984
6758.304209	0.086093	0.316095	10223.451172
6758.305301	0.086074	0.316095	10317.444336
6759.351221	1.037963	0.334320	435.944336
6759.352328	1.520325	0.334320	2118.943848
6759.353232	1.500809	0.334320	3475.675293
6759.354103	1.464067	0.334320	4750.877930
6759.355104	1.423638	0.334320	6175.939453
6759.356112	1.383475	0.334320	7570.482422
6759.357002	1.350220	0.334320	8772.177734
6759.357873	0.882953	0.334320	9541.229492
6759.358982	0.092538	0.334320	9643.853516
6759.359897	0.085898	0.334320	9722.450195
6759.360770	0.085935	0.334320	9797.471680
6759.361761	0.085994	0.334320	9882.691406
6759.362765	0.085906	0.334320	9968.940430
6759.363648	0.085957	0.334320	10044.840820
6759.364508	0.086060	0.334320	10118.851562
6759.365588	0.086060	0.334320	10211.795898
6759.366494	0.085891	0.334320	10289.613281
6759.367362	0.085979	0.334320	10364.243164
6760.347073	1.034337	0.324478	443.730652
6760.348130	1.518622	0.324478	2048.913818
6760.349150	1.498220	0.324478	3577.098389
6760.350040	1.460493	0.324478	4876.937500
6760.350983	1.422612	0.324478	6218.460937
6760.352034	1.381238	0.324478	7670.142090
6760.352964	1.346257	0.324478	8922.161133
6760.353832	0.776843	0.324478	9596.460937
6760.354889	0.090831	0.324478	9692.469727
6760.355895	0.085968	0.324478	9778.953125
6760.356767	0.085961	0.324478	9853.911133
6760.357723	0.086125	0.324478	9936.247070
6760.358773	0.086122	0.324478	10026.674805
6760.359693	0.085917	0.324478	10105.717773
6760.360562	0.086041	0.324478	10180.487305
6760.361617	0.086133	0.324478	10271.357422
6760.362611	0.086052	0.324478	10356.893555
6760.363499	0.085942	0.324478	10433.209961
6761.408035	1.119445	0.344612	572.036194
6761.409061	1.521987	0.344612	2133.595215
6761.409947	1.501025	0.344612	3463.503906
6761.410917	1.460702	0.344612	4880.384766
6761.411974	1.417614	0.344612	6378.802246
6761.412894	1.381439	0.344612	7649.726562
6761.413756	1.348462	0.344612	8812.100586
6761.414819	0.627239	0.344612	9478.855469
6761.415833	0.087528	0.344612	9567.609375
6761.416723	0.086071	0.344612	9644.211914
6761.417695	0.086173	0.344612	9727.971680
6761.418746	0.086140	0.344612	9818.504883
6761.419665	0.086104	0.344612	9897.633789
6761.420527	0.086049	0.344612	9971.807617
6761.421606	0.086177	0.344612	10064.791992
6761.422599	0.086052	0.344612	10150.242187
6761.423490	0.085972	0.344612	10226.842773
6761.424485	0.086158	0.344612	10312.570312
6762.403267	1.035176	0.329131	442.020081
6762.404245	1.513484	0.329131	1922.207275
6762.405300	1.499711	0.329131	3504.402100
6762.406216	1.460852	0.329131	4842.542480
6762.407087	1.424392	0.329131	6083.187988
6762.408170	1.382959	0.329131	7580.932617
6762.409162	1.345562	0.329131	8915.729492
6762.410064	0.730668	0.329131	9574.791992
6762.411046	0.092552	0.329131	9665.678711
6762.412098	0.086049	0.329131	9756.202148
6762.412991	0.085979	0.329131	9832.981445
6762.413851	0.086096	0.329131	9907.024414
6762.414950	0.086169	0.329131	10001.724609
6762.415919	0.085953	0.329131	10085.013672
6762.416785	0.085950	0.329131	10159.446289
6762.417872	0.086089	0.329131	10253.024414
6762.418897	0.085997	0.329131	10341.171875
6762.419777	0.085983	0.329131	10416.836914
6763.465695	1.072581	0.364314	492.314484
6763.466573	1.515095	0.364314	1822.568115
6763.467571	1.504984	0.364314	3324.542236
6763.468623	1.461043	0.364314	4861.559082
6763.469524	1.423894	0.364314	6144.487793
6763.470389	1.388375	0.364314	7345.432129
6763.471474	1.349004	0.364314	8809.101562
6763.472448	0.739490	0.364314	9529.364258
6763.473322	0.093962	0.364314	9611.487305
6763.474316	0.085972	0.364314	9696.943359
6763.475366	0.085836	0.364314	9787.071289
6763.476244	0.085862	0.364314	9862.458008
6763.477113	0.086005	0.364314	9937.196289
6763.478204	0.086005	0.364314	10031.027344
6763.479167	0.085891	0.364314	10113.740234
6763.480032	0.085997	0.364314	10188.127930
6763.481117	0.086056	0.364314	10281.499023
6763.482140	0.085928	0.364314	10369.403320
6764.460472	1.025035	0.335331	431.539886
6764.461522	1.518615	0.335331	2026.085205
6764.462482	1.500927	0.335331	3466.974609
6764.463363	1.463588	0.335331	4756.395508
6764.464272	1.425908	0.335331	6052.545898
6764.465353	1.384688	0.335331	7549.393066
6764.466233	1.351139	0.335331	8738.395508
6764.467103	0.955785	0.335331	9569.928711
6764.468142	0.099470	0.335331	9673.278320
6764.469094	0.085851	0.335331	9755.008789
6764.469957	0.085884	0.335331	9829.126953
6764.470844	0.085972	0.335331	9905.383789
6764.471942	0.085887	0.335331	9999.688477
6764.472836	0.085880	0.335331	10076.464844
6764.473700	0.085920	0.335331	10150.700195
6764.474717	0.086027	0.335331	10238.189453
6764.475686	0.085983	0.335331	10321.506836
6764.476561	0.085865	0.335331	10396.638672
6765.522382	1.038102	0.382281	456.764801
6765.523250	1.513224	0.382281	1770.243164
6765.524291	1.503666	0.382281	3335.559326
6765.525317	1.461269	0.382281	4834.821777
6765.526209	1.424480	0.382281	6105.458008
6765.527130	1.388562	0.382281	7384.323730
6765.527996	1.355252	0.382281	8557.971680
6765.528986	0.968613	0.382281	9516.898437
6765.529890	0.109779	0.382281	9616.138672
6765.530778	0.085862	0.382281	9692.383789
6765.531771	0.085961	0.382281	9777.743164
6765.532690	0.085931	0.382281	9856.713867
6765.533604	0.085898	0.382281	9935.224609
6765.534492	0.085854	0.382281	10011.463867
6765.535422	0.085869	0.382281	10091.322266
6765.536362	0.085986	0.382281	10172.149414
6765.537252	0.085909	0.382281	10248.608398
6765.538236	0.085946	0.382281	10333.179687
6766.518306	1.121869	0.342320	588.981140
6766.519212	1.520101	0.342320	1966.192871
6766.520082	1.503805	0.342320	3274.503174
6766.521203	1.458644	0.342320	4909.642578
6766.522184	1.419309	0.342320	6301.984863
6766.523057	1.384764	0.342320	7510.884277
6766.524092	1.346221	0.342320	8904.222656
6766.525146	0.555227	0.342320	9489.431641
6766.526033	0.088099	0.342320	9567.576172
6766.526960	0.085935	0.342320	9647.238281
6766.528038	0.085942	0.342320	9739.883789
6766.528986	0.085924	0.342320	9821.339844
6766.529849	0.086005	0.342320	9895.561523
6766.530899	0.086107	0.342320	9985.973633
6766.531911	0.085887	0.342320	10072.891602
6766.532801	0.085920	0.342320	10149.360352
6766.533748	0.085986	0.342320	10230.789062
6766.534793	0.085979	0.342320	10320.636719
6767.578599	1.072559	0.395272	489.086731
6767.579473	1.515011	0.395272	1813.206299
6767.580455	1.504808	0.395272	3290.928223
6767.581535	1.460728	0.395272	4868.514160
6767.582425	1.423389	0.395272	6135.330078
6767.583300	1.387163	0.395272	7349.097656
6767.584405	1.347279	0.395272	8837.840820
6767.585389	0.700309	0.395272	9526.944336
6767.586254	0.092325	0.395272	9606.805664
6767.587316	0.085935	0.395272	9698.068359
6767.588357	0.085906	0.395272	9787.496094
6767.589246	0.085931	0.395272	9863.888672
6767.590162	0.086078	0.395272	9942.736328
6767.591235	0.086038	0.395272	10035.054687
6767.592172	0.085803	0.395272	10115.452148
6767.593042	0.085961	0.395272	10190.238281
6767.594077	0.086052	0.395272	10279.302734
6767.595093	0.085953	0.395272	10366.630859
6768.577613	1.165290	0.351452	663.050293
6768.578583	1.522170	0.351452	2139.555664
6768.579517	1.498861	0.351452	3539.491943
6768.580385	1.460783	0.351452	4807.451172
6768.581495	1.418038	0.351452	6381.473633
6768.582395	1.382267	0.351452	7625.513672
6768.583262	1.349799	0.351452	8795.789062
6768.584316	0.677417	0.351452	9509.786133
6768.585271	0.089106	0.351452	9594.882812
6768.586194	0.086012	0.351452	9674.271484
6768.587055	0.085975	0.351452	9748.295898
6768.588141	0.085920	0.351452	9841.605469
6768.589020	0.085924	0.351452	9917.132812
6768.589895	0.085968	0.351452	9992.354492
6768.590884	0.086019	0.351452	10077.427734
6768.591870	0.085946	0.351452	10162.170898
6768.592760	0.085942	0.351452	10238.659180
6768.593621	0.085909	0.351452	10312.626953
6769.634344	1.096304	0.398342	583.233582
6769.635308	1.521065	0.398342	2049.539795
6769.636237	1.501080	0.398342	3444.043457
6769.637108	1.463994	0.398342	4719.182617
6769.638149	1.422854	0.398342	6200.373535
6769.639030	1.387478	0.398342	7422.741699
6769.639901	1.354373	0.398342	8602.400391
6769.640826	0.944886	0.398342	9476.419922
6769.641825	0.100133	0.398342	9576.453125
6769.642729	0.085796	0.398342	9654.012695
6769.643616	0.085873	0.398342	9730.181641
6769.644612	0.086063	0.398342	9815.900391
6769.645543	0.086001	0.398342	9895.967773
6769.646471	0.085968	0.398342	9975.746094
6769.647331	0.086052	0.398342	10049.750977
6769.648372	0.085928	0.398342	10139.202148
6769.649254	0.085920	0.398342	10214.984375
6769.650120	0.085983	0.398342	10289.445312
6770.636217	1.033063	0.357841	435.952454
6770.637314	1.519757	0.357841	2103.125977
6770.638315	1.496521	0.357841	3601.143555
6770.639215	1.458867	0.357841	4914.124023
6770.640202	1.419005	0.357841	6314.682129
6770.641252	1.378436	0.357841	7762.040039
6770.642160	1.344141	0.357841	8982.519531
6770.643032	0.678776	0.357841	9574.412109
6770.644151	0.087521	0.357841	9672.347656
6770.645116	0.085833	0.357841	9755.175781
6770.645984	0.085851	0.357841	9829.694336
6770.647030	0.086082	0.357841	9919.735352
6770.648063	0.085862	0.357841	10008.430664
6770.648945	0.085840	0.357841	10084.141602
6770.649865	0.086041	0.357841	10163.299805
6770.650907	0.086049	0.357841	10252.962891
6770.651846	0.085858	0.357841	10333.583984
6770.652705	0.085924	0.357841	10407.392578
6771.688897	1.029214	0.396428	437.415924
6771.689846	1.511924	0.396428	1872.231567
6771.690912	1.500388	0.396428	3471.645508
6771.691847	1.460815	0.396428	4837.507812
6771.692715	1.424960	0.396428	6074.373047
6771.693783	1.383717	0.396428	7552.182617
6771.694797	1.345646	0.396428	8916.667969
6771.695679	0.755841	0.396428	9583.320312
6771.696657	0.094607	0.396428	9675.845703
6771.697703	0.085935	0.396428	9765.733398
6771.698611	0.085895	0.396428	9843.725586
6771.699468	0.086001	0.396428	9917.428711
6771.700532	0.085953	0.396428	10008.882812
6771.701527	0.085909	0.396428	10094.362305
6771.702415	0.085953	0.396428	10170.688477
6771.703388	0.086030	0.396428	10254.395508
6771.704453	0.086067	0.396428	10346.056641
6771.705357	0.085935	0.396428	10423.742187
6772.697167	1.145065	0.383131	657.267151
6772.698167	1.522130	0.383131	2179.397217
6772.699048	1.499388	0.383131	3500.358398
6772.699920	1.460793	0.383131	4774.170410
6772.701033	1.417863	0.383131	6352.251465
6772.701945	1.381637	0.383131	7612.304687
6772.702823	1.348967	0.383131	8796.698242
6772.703829	0.716920	0.383131	9517.919922
6772.704829	0.088700	0.383131	9606.620117
6772.705721	0.085847	0.383131	9683.195312
6772.706581	0.085942	0.383131	9757.105469
6772.707664	0.085972	0.383131	9850.212891
6772.708570	0.085917	0.383131	9928.053711
6772.709440	0.085906	0.383131	10002.791992
6772.710452	0.086067	0.383131	10089.891602
6772.711446	0.085891	0.383131	10175.267578
6772.712329	0.085833	0.383131	10251.057617
6772.713185	0.085986	0.383131	10324.662109
6773.747743	1.098684	0.397238	577.907837
6773.748665	1.519969	0.397238	1979.319702
6773.749550	1.504530	0.397238	3310.828857
6773.750462	1.465671	0.397238	4647.521484
6773.751486	1.424791	0.397238	6106.507812
6773.752412	1.388295	0.397238	7392.068848
6773.753283	1.355317	0.397238	8572.550781
6773.754346	0.869689	0.397238	9497.030273
6773.755222	0.102620	0.397238	9586.924805
6773.756084	0.085939	0.397238	9661.003906
6773.756952	0.085983	0.397238	9735.636719
6773.757999	0.085986	0.397238	9825.664062
6773.758892	0.085887	0.397238	9902.361328
6773.759766	0.085946	0.397238	9977.478516
6773.760758	0.086111	0.397238	10062.900391
6773.761700	0.086049	0.397238	10143.958008
6773.762626	0.086001	0.397238	10223.594727
6773.763489	0.086067	0.397238	10297.870117
6774.759383	1.054871	0.400557	478.911255
6774.760470	1.520533	0.400557	2131.730957
6774.761430	1.497832	0.400557	3569.649658
6774.762307	1.460621	0.400557	4850.614746
6774.763359	1.418013	0.400557	6342.364258
6774.764388	1.377946	0.400557	7760.270508
6774.765290	1.344313	0.400557	8972.840820
6774.766254	0.634380	0.400557	9584.382812
6774.767293	0.087506	0.400557	9675.301758
6774.768212	0.085887	0.400557	9754.232422
6774.769073	0.086056	0.400557	9828.326172
6774.770126	0.085994	0.400557	9918.877930
6774.771143	0.085968	0.400557	10006.307617
6774.772020	0.085884	0.400557	10081.627930
6774.772989	0.085997	0.400557	10164.958984
6774.774032	0.085986	0.400557	10254.642578
6774.774944	0.085876	0.400557	10332.961914
6774.775803	0.085968	0.400557	10406.808594
6775.803911	1.090188	0.401661	546.184204
6775.804827	1.519102	0.401661	1937.681152
6775.805687	1.506086	0.401661	3232.915527
6775.806746	1.462017	0.401661	4781.191406
6775.807746	1.421375	0.401661	6202.565918
6775.808636	1.386632	0.401661	7436.668457
6775.809625	1.349894	0.401661	8771.712891
6775.810685	0.667800	0.401661	9479.581055
6775.811596	0.089978	0.401661	9561.550781
6775.812458	0.085887	0.401661	9635.585937
6775.813529	0.086016	0.401661	9727.708984
6775.814521	0.086005	0.401661	9813.025391
6775.815402	0.085844	0.401661	9888.653320
6775.816382	0.085979	0.401661	9972.913086
6775.817444	0.085902	0.401661	10064.141602
6775.818334	0.085869	0.401661	10140.565430
6775.819192	0.085968	0.401661	10214.326172
6775.820289	0.085997	0.401661	10308.665039
6776.818113	1.032382	0.412187	443.924103
6776.818979	1.511924	0.412187	1753.250122
6776.820075	1.501912	0.412187	3399.345215
6776.821071	1.459871	0.412187	4853.376465
6776.821969	1.423473	0.412187	6131.655273
6776.822965	1.384885	0.412187	7511.000977
6776.824035	1.345335	0.412187	8950.508789
6776.824927	0.703517	0.412187	9578.045898
6776.825794	0.092999	0.412187	9658.675781
6776.826883	0.086023	0.412187	9752.354492
6776.827841	0.085844	0.412187	9834.592773
6776.828703	0.085876	0.412187	9908.618164
6776.829735	0.086115	0.412187	9997.488281
6776.830767	0.085876	0.412187	10086.113281
6776.831648	0.085961	0.412187	10161.844727
6776.832565	0.086049	0.412187	10240.750977
6776.833622	0.086089	0.412187	10331.747070
6776.834571	0.086060	0.412187	10413.417969
6777.860639	1.103665	0.412505	559.557922
6777.861522	1.517963	0.412505	1899.918945
6777.862385	1.507181	0.412505	3200.616455
6777.863442	1.463602	0.412505	4747.644043
6777.864409	1.424227	0.412505	6124.872070
6777.865279	1.389375	0.412505	7333.628418
6777.866166	1.354574	0.412505	8535.135742
6777.867263	0.845310	0.412505	9462.440430
6777.868152	0.098840	0.412505	9550.309570
6777.869018	0.085675	0.412505	9624.503906
6777.870054	0.085935	0.412505	9713.532227
6777.871023	0.085833	0.412505	9796.704102
6777.871899	0.085902	0.412505	9871.954102
6777.872757	0.085964	0.412505	9945.711914
6777.873878	0.085961	0.412505	10042.074219
6777.874781	0.085887	0.412505	10119.630859
6777.875656	0.085763	0.412505	10194.673828
6777.876655	0.085997	0.412505	10280.584961
6778.877408	1.069816	0.425887	491.045441
6778.878291	1.515417	0.425887	1829.159058
6778.879268	1.505255	0.425887	3299.793457
6778.880314	1.461244	0.425887	4828.254395
6778.881231	1.423993	0.425887	6134.055664
6778.882093	1.388775	0.425887	7331.179199
6778.883184	1.349143	0.425887	8803.093750
6778.884184	0.710127	0.425887	9513.220703
6778.885062	0.092813	0.425887	9594.709961
6778.886068	0.085920	0.425887	9681.145508
6778.887112	0.085909	0.425887	9770.834961
6778.887995	0.085869	0.425887	9846.657227
6778.888855	0.085913	0.425887	9920.542969
6778.889937	0.086049	0.425887	10013.647461
6778.890918	0.085847	0.425887	10097.863281
6778.891782	0.085902	0.425887	10172.083008
6778.892845	0.086019	0.425887	10263.521484
6778.893888	0.085895	0.425887	10353.109375
6779.918266	1.022578	0.421831	433.573120
6779.919239	1.513498	0.421831	1906.207031
6779.920302	1.499853	0.421831	3500.551270
6779.921210	1.460955	0.421831	4827.098145
6779.922077	1.424271	0.421831	6061.941406
6779.923191	1.382131	0.421831	7601.635742
6779.924164	1.345964	0.421831	8911.258789
6779.925033	0.780494	0.421831	9589.508789
6779.926109	0.090385	0.421831	9686.762695
6779.927132	0.085968	0.421831	9774.708008
6779.928015	0.085876	0.421831	9850.537109
6779.928935	0.085935	0.421831	9929.597656
6779.930009	0.085994	0.421831	10021.955078
6779.930949	0.085924	0.421831	10102.723633
6779.931807	0.085924	0.421831	10176.446289
6779.932835	0.085931	0.421831	10264.784180
6779.933858	0.085917	0.421831	10352.676758
6779.934749	0.086030	0.421831	10429.330078
6780.933649	1.096582	0.433585	558.160217
6780.934520	1.517802	0.433585	1880.165283
6780.935418	1.505120	0.433585	3231.762695
6780.936514	1.460508	0.433585	4832.479492
6780.937462	1.421997	0.433585	6180.532715
6780.938335	1.387595	0.433585	7391.903320
6780.939361	1.349084	0.433585	8776.064453
6780.940402	0.682573	0.433585	9486.623047
6780.941298	0.090696	0.433585	9567.886719
6780.942239	0.085913	0.433585	9648.730469
6780.943304	0.085935	0.433585	9740.250977
6780.944242	0.085902	0.433585	9820.827148
6780.945104	0.085844	0.433585	9894.824219
6780.946165	0.085975	0.433585	9986.043945
6780.947179	0.085946	0.433585	10073.193359
6780.948062	0.085942	0.433585	10149.080078
6780.949023	0.086082	0.433585	10231.804687
6780.950084	0.085939	0.433585	10322.985352
6781.975595	1.094242	0.428260	589.796387
6781.976641	1.521090	0.428260	2180.856445
6781.977567	1.497429	0.428260	3567.475830
6781.978426	1.459918	0.428260	4821.545898
6781.979503	1.417500	0.428260	6348.193359
6781.980511	1.378081	0.428260	7737.298828
6781.981385	1.345137	0.428260	8912.948242
6781.982372	0.620171	0.428260	9525.056641
6781.983422	0.087330	0.428260	9616.753906
6781.984318	0.085909	0.428260	9693.728516
6781.985184	0.085928	0.428260	9768.141602
6781.986276	0.086005	0.428260	9862.058594
6781.987238	0.085972	0.428260	9944.763672
6781.988125	0.085902	0.428260	10020.958984
6781.989117	0.085961	0.428260	10106.232422
6781.990176	0.085920	0.428260	10197.221680
6781.991057	0.085997	0.428260	10272.985352
6781.991926	0.085953	0.428260	10347.678711
6782.990789	1.035699	0.437449	447.422119
6782.991657	1.512210	0.437449	1760.020020
6782.992756	1.501487	0.437449	3410.154297
6782.993749	1.459691	0.437449	4859.627930
6782.994642	1.423019	0.437449	6130.383789
6782.995571	1.387020	0.437449	7418.925781
6782.996444	1.353168	0.437449	8600.241211
6782.997451	0.902325	0.437449	9508.882812
6782.998370	0.102726	0.437449	9603.288086
6782.999232	0.085847	0.437449	9677.288086
6783.000254	0.085931	0.437449	9765.110352
6783.001124	0.085924	0.437449	9839.864258
6783.002027	0.085942	0.437449	9917.470703
6783.002902	0.086012	0.437449	9992.731445
6783.003883	0.086012	0.437449	10077.109375
6783.004816	0.085887	0.437449	10157.242187
6783.005695	0.085924	0.437449	10232.769531
6783.006762	0.085997	0.437449	10324.528320
6784.032769	1.090649	0.434149	538.780762
6784.033741	1.520698	0.434149	2016.899536
6784.034607	1.504211	0.434149	3319.546631
6784.035683	1.459318	0.434149	4889.772461
6784.036726	1.417313	0.434149	6368.030273
6784.037621	1.381890	0.434149	7604.821289
6784.038534	1.347352	0.434149	8834.954102
6784.039628	0.574922	0.434149	9463.918945
6784.040577	0.087466	0.434149	9546.923828
6784.041440	0.085942	0.434149	9621.091797
6784.042489	0.086082	0.434149	9711.391602
6784.043502	0.085942	0.434149	9798.451172
6784.044383	0.085961	0.434149	9874.182617
6784.045341	0.086078	0.434149	9956.645508
6784.046381	0.085990	0.434149	10046.075195
6784.047309	0.086060	0.434149	10125.938477
6784.048165	0.085942	0.434149	10199.504883
6784.049225	0.086019	0.434149	10290.685547
6785.047485	1.026585	0.445316	434.245239
6785.048411	1.511470	0.445316	1833.866211
6785.049497	1.499733	0.445316	3462.575684
6785.050452	1.459980	0.445316	4856.856934
6785.051320	1.424209	0.445316	6093.070312
6785.052377	1.382886	0.445316	7554.780273
6785.053396	1.344987	0.445316	8925.321289
6785.054297	0.715400	0.445316	9569.896484
6785.055250	0.093146	0.445316	9658.664062
6785.056299	0.085979	0.445316	9748.856445
6785.057228	0.085961	0.445316	9828.713867
6785.058086	0.085961	0.445316	9902.467773
6785.059144	0.086056	0.445316	9993.514648
6785.060151	0.085917	0.445316	10080.033203
6785.061030	0.085913	0.445316	10155.550781
6785.062009	0.085953	0.445316	10239.699219
6785.063056	0.085994	0.445316	10329.734375
6785.063959	0.085968	0.445316	10407.363281
6786.090444	1.039991	0.442569	455.516266
6786.091320	1.513268	0.442569	1781.138916
6786.092288	1.506460	0.442569	3239.392090
6786.093308	1.463774	0.442569	4732.441895
6786.094204	1.426923	0.442569	6010.964844
6786.095074	1.391854	0.442569	7221.877930
6786.096138	1.352501	0.442569	8660.939453
6786.097082	0.929861	0.442569	9538.728516
6786.097953	0.109490	0.442569	9634.093750
6786.098917	0.085847	0.442569	9716.850586
6786.099946	0.085851	0.442569	9805.191406
6786.100827	0.085814	0.442569	9880.793945
6786.101683	0.085902	0.442569	9954.326172
6786.102721	0.085968	0.442569	10043.560547
6786.103672	0.085825	0.442569	10125.180664
6786.104545	0.085884	0.442569	10200.157227
6786.105474	0.085909	0.442569	10279.966797
6786.106523	0.085920	0.442569	10370.097656
6787.106323	1.096157	0.447024	552.463257
6787.107211	1.518329	0.447024	1900.739258
6787.108081	1.504563	0.447024	3209.708984
6787.109195	1.459823	0.447024	4835.951660
6787.110168	1.420642	0.447024	6218.236328
6787.111036	1.386339	0.447024	7421.578613
6787.112058	1.348246	0.447024	8799.485352
6787.113106	0.642539	0.447024	9472.866211
6787.113998	0.089718	0.447024	9552.894531
6787.114936	0.085942	0.447024	9633.508789
6787.115997	0.085979	0.447024	9724.732422
6787.116938	0.086038	0.447024	9805.693359
6787.117800	0.085975	0.447024	9879.803711
6787.118847	0.086067	0.447024	9969.916016
6787.119863	0.085924	0.447024	10057.214844
6787.120751	0.085931	0.447024	10133.521484
6787.121703	0.085986	0.447024	10215.380859
6787.122738	0.085983	0.447024	10304.373047
6788.147131	1.023885	0.448450	433.103577
6788.148027	1.511763	0.448450	1787.643066
6788.149127	1.500341	0.448450	3438.017578
6788.150092	1.460281	0.448450	4847.188477
6788.150963	1.424447	0.448450	6087.881836
6788.152000	1.383867	0.448450	7522.952148
6788.153041	1.345041	0.448450	8923.140625
6788.153937	0.725189	0.448450	9572.910156
6788.154889	0.093237	0.448450	9661.671875
6788.155923	0.085994	0.448450	9750.588867
6788.156857	0.085789	0.448450	9830.715820
6788.157718	0.085975	0.448450	9904.740234
6788.158775	0.086082	0.448450	9995.728516
6788.159774	0.085942	0.448450	10081.584961
6788.160662	0.085975	0.448450	10157.930664
6788.161627	0.085979	0.448450	10240.900391
6788.162664	0.085939	0.448450	10330.018555
6788.163585	0.085942	0.448450	10409.171875
6789.164471	1.020923	0.451769	430.829468
6789.165469	1.514246	0.451769	1942.046631
6789.166482	1.500286	0.451769	3461.835937
6789.167374	1.462434	0.451769	4766.327148
6789.168240	1.425681	0.451769	6000.966797
6789.169337	1.384442	0.451769	7519.700195
6789.170243	1.349945	0.451769	8742.750000
6789.171122	0.936771	0.451769	9566.171875
6789.172121	0.107457	0.451769	9673.521484
6789.173113	0.085825	0.451769	9758.660156
6789.173995	0.085913	0.451769	9834.435547
6789.174852	0.085931	0.451769	9908.079102
6789.175908	0.085898	0.451769	9998.788086
6789.176833	0.085887	0.451769	10078.234375
6789.177709	0.085950	0.451769	10153.526367
6789.178670	0.086045	0.451769	10236.215820
6789.179678	0.085836	0.451769	10322.738281
6789.180570	0.085811	0.451769	10399.281250
6790.205011	1.161332	0.454770	672.411072
6790.206068	1.521790	0.454770	2280.942627
6790.206956	1.496455	0.454770	3609.794678
6790.207851	1.457673	0.454770	4914.412109
6790.208944	1.414874	0.454770	6460.869629
6790.209891	1.377839	0.454770	7765.683594
6790.210753	1.345459	0.454770	8925.468750
6790.211784	0.570253	0.454770	9513.399414
6790.212835	0.086777	0.454770	9604.602539
6790.213715	0.085983	0.454770	9680.267578
6790.214647	0.086016	0.454770	9760.434570
6790.215704	0.085909	0.454770	9851.241211
6790.216639	0.085895	0.454770	9931.552734
6790.217504	0.085979	0.454770	10005.924805
6790.218551	0.086001	0.454770	10095.967773
6790.219570	0.085979	0.454770	10183.580078
6790.220459	0.086049	0.454770	10260.077148
6790.221424	0.086016	0.454770	10343.082031
6791.223239	1.036249	0.461876	449.731995
6791.224108	1.512308	0.461876	1763.927979
6791.225183	1.502014	0.461876	3378.593262
6791.226193	1.459717	0.461876	4852.907227
6791.227089	1.423466	0.461876	6128.332520
6791.228066	1.385504	0.461876	7481.970215
6791.229128	1.345605	0.461876	8911.002930
6791.230047	0.704066	0.461876	9558.040039
6791.230908	0.092900	0.461876	9638.027344
6791.232006	0.086041	0.461876	9732.500977
6791.232964	0.085880	0.461876	9814.774414
6791.233840	0.085909	0.461876	9890.031250
6791.234854	0.086027	0.461876	9977.262695
6791.235903	0.085953	0.461876	10067.427734
6791.236790	0.085953	0.461876	10143.667969
6791.237647	0.085935	0.461876	10217.314453
6791.238739	0.086005	0.461876	10311.231445
6791.239703	0.085909	0.461876	10394.047852
6792.262173	1.111264	0.466992	565.633118
6792.263100	1.519779	0.466992	1974.468262
6792.263983	1.504416	0.466992	3302.868164
6792.264923	1.465349	0.466992	4680.296387
6792.265969	1.422656	0.466992	6168.394531
6792.266863	1.387170	0.466992	7408.524902
6792.267728	1.354120	0.466992	8579.838867
6792.268784	0.847701	0.466992	9475.011719
6792.269717	0.096588	0.466992	9565.128906
6792.270586	0.085792	0.466992	9639.682617
6792.271514	0.086041	0.466992	9719.529297
6792.272576	0.085983	0.466992	9810.842773
6792.273459	0.085902	0.466992	9886.694336
6792.274315	0.085983	0.466992	9960.295898
6792.275329	0.085994	0.466992	10047.493164
6792.276290	0.085862	0.466992	10130.006836
6792.277162	0.085939	0.466992	10204.945312
6792.278025	0.086034	0.466992	10279.192383
6793.280448	1.027115	0.475407	434.469849
6793.281474	1.517391	0.475407	1991.313354
6793.282501	1.498608	0.475407	3530.384277
6793.283388	1.461010	0.475407	4826.299805
6793.284332	1.423011	0.475407	6169.622559
6793.285383	1.381523	0.475407	7621.603516
6793.286326	1.346202	0.475407	8891.072266
6793.287199	0.792660	0.475407	9583.064453
6793.288265	0.090630	0.475407	9679.675781
6793.289271	0.085906	0.475407	9766.096680
6793.290144	0.085972	0.475407	9841.150391
6793.291099	0.086012	0.475407	9923.291992
6793.292157	0.086027	0.475407	10014.308594
6793.293067	0.085935	0.475407	10092.509766
6793.293935	0.085906	0.475407	10167.076172
6793.294991	0.086063	0.475407	10257.958984
6793.295990	0.085909	0.475407	10343.782227
6793.296876	0.086056	0.475407	10420.027344
6794.319807	1.035930	0.470291	445.449982
6794.320670	1.511613	0.470291	1749.971558
6794.321781	1.500967	0.470291	3417.545654
6794.322752	1.460321	0.470291	4835.517578
6794.323628	1.424652	0.470291	6083.512695
6794.324632	1.385200	0.470291	7474.253906
6794.325674	1.346755	0.470291	8877.573242
6794.326572	0.773086	0.470291	9571.804687
6794.327481	0.095922	0.470291	9658.997070
6794.328564	0.086038	0.470291	9752.175781
6794.329519	0.085972	0.470291	9834.278320
6794.330382	0.086008	0.470291	9908.503906
6794.331442	0.086096	0.470291	9999.765625
6794.332456	0.086016	0.470291	10086.985352
6794.333337	0.085950	0.470291	10162.707031
6794.334300	0.086115	0.470291	10245.635742
6794.335342	0.086016	0.470291	10335.263672
6794.336264	0.085895	0.470291	10414.458984
6795.336144	1.045734	0.485776	467.442963
6795.337022	1.514099	0.485776	1796.822021
6795.337977	1.506460	0.485776	3235.491211
6795.338999	1.463573	0.485776	4731.262695
6795.339887	1.427450	0.485776	5998.838379
6795.340747	1.392675	0.485776	7196.538574
6795.341799	1.353552	0.485776	8620.475586
6795.342759	0.948582	0.485776	9531.114258
6795.343623	0.111885	0.485776	9627.782227
6795.344561	0.085961	0.485776	9708.413086
6795.345607	0.086052	0.485776	9798.423828
6795.346500	0.085858	0.485776	9875.094727
6795.347364	0.086001	0.485776	9949.399414
6795.348408	0.086093	0.485776	10039.280273
6795.349367	0.086008	0.485776	10121.762695
6795.350241	0.086107	0.485776	10197.020508
6795.351163	0.085983	0.485776	10276.296875
6795.352230	0.085961	0.485776	10368.016602
6796.378637	1.095740	0.478405	555.540039
6796.379538	1.517875	0.478405	1923.145142
6796.380402	1.504940	0.478405	3223.413574
6796.381494	1.460449	0.478405	4818.224121
6796.382468	1.420869	0.478405	6202.150879
6796.383352	1.386365	0.478405	7427.697266
6796.384354	1.348773	0.478405	8779.167969
6796.385412	0.669141	0.478405	9487.119141
6796.386295	0.090454	0.478405	9566.990234
6796.387178	0.086001	0.478405	9642.928711
6796.388279	0.086023	0.478405	9737.639648
6796.389236	0.085920	0.478405	9819.865234
6796.390100	0.085873	0.478405	9894.059570
6796.391141	0.086125	0.478405	9983.715820
6796.392176	0.085979	0.478405	10072.704102
6796.393070	0.085935	0.478405	10149.530273
6796.393999	0.085990	0.478405	10229.415039
6796.395056	0.086074	0.478405	10320.395508
6797.393343	1.028108	0.494945	437.973999
6797.394382	1.516754	0.494945	2013.881592
6797.395419	1.497539	0.494945	3566.829590
6797.396306	1.459958	0.494945	4861.812500
6797.397259	1.421470	0.494945	6216.473145
6797.398332	1.379392	0.494945	7696.560547
6797.399268	1.344463	0.494945	8954.977539
6797.400135	0.731426	0.494945	9589.124023
6797.401171	0.089524	0.494945	9681.871094
6797.402183	0.085946	0.494945	9768.848633
6797.403072	0.085968	0.494945	9845.274414
6797.404034	0.085972	0.494945	9927.979492
6797.405087	0.085986	0.494945	10018.523437
6797.406002	0.085880	0.494945	10097.103516
6797.406871	0.085931	0.494945	10171.778320
6797.407937	0.086008	0.494945	10263.462891
6797.408936	0.085972	0.494945	10349.348633
6797.409829	0.086016	0.494945	10426.160156
6798.438421	1.106558	0.486111	559.918152
6798.439326	1.518842	0.486111	1934.469727
6798.440188	1.504640	0.486111	3231.469238
6798.441286	1.460347	0.486111	4834.929687
6798.442284	1.419741	0.486111	6251.831543
6798.443170	1.385182	0.486111	7479.102539
6798.444174	1.347755	0.486111	8832.249023
6798.445243	0.618102	0.486111	9493.000000
6798.446115	0.089041	0.486111	9570.643555
6798.447002	0.085902	0.486111	9646.838867
6798.448102	0.085953	0.486111	9741.387695
6798.449058	0.085887	0.486111	9823.496094
6798.449924	0.085884	0.486111	9897.871094
6798.450949	0.086008	0.486111	9986.029297
6798.451987	0.085814	0.486111	10075.104492
6798.452879	0.085928	0.486111	10151.751953
6798.453820	0.085924	0.486111	10232.606445
6798.454867	0.085997	0.486111	10322.645508
6799.448570	1.087709	0.508512	517.749329
6799.449458	1.516747	0.508512	1864.620605
6799.450336	1.507247	0.508512	3187.983643
6799.451275	1.468074	0.508512	4566.504883
6799.452275	1.427245	0.508512	5993.749512
6799.453195	1.391001	0.508512	7273.470703
6799.454067	1.358046	0.508512	8457.686523
6799.455118	0.988572	0.508512	9496.675781
6799.456001	0.117854	0.508512	9600.741211
6799.456871	0.085833	0.508512	9675.415039
6799.457727	0.085935	0.508512	9748.975586
6799.458769	0.085745	0.508512	9838.321289
6799.459658	0.085800	0.508512	9914.596680
6799.460533	0.085818	0.508512	9989.687500
6799.461518	0.086060	0.508512	10074.456055
6799.462456	0.085935	0.508512	10155.063477
6799.463370	0.085869	0.508512	10233.547852
6799.464234	0.085920	0.508512	10307.783203
6800.494595	1.092693	0.505729	540.882935
6800.495541	1.519409	0.505729	1978.244019
6800.496406	1.504629	0.505729	3279.748047
6800.497435	1.461856	0.505729	4783.997559
6800.498468	1.419994	0.505729	6250.851074
6800.499365	1.384405	0.505729	7492.663086
6800.500321	1.349322	0.505729	8782.615234
6800.501384	0.658667	0.505729	9482.778320
6800.502313	0.089052	0.505729	9565.506836
6800.503178	0.085814	0.505729	9639.736328
6800.504240	0.085884	0.505729	9730.945312
6800.505242	0.085807	0.505729	9816.923828
6800.506132	0.085803	0.505729	9893.289062
6800.507100	0.085895	0.505729	9976.435547
6800.508136	0.085865	0.505729	10065.392578
6800.509048	0.085891	0.505729	10143.725586
6800.509911	0.085928	0.505729	10217.880859
6800.510990	0.085902	0.505729	10310.569336
6801.504793	1.107993	0.520392	557.320557
6801.505695	1.518479	0.520392	1926.988647
6801.506560	1.504717	0.520392	3228.568604
6801.507663	1.459856	0.520392	4838.789551
6801.508652	1.420129	0.520392	6243.297363
6801.509517	1.385731	0.520392	7441.954590
6801.510545	1.347645	0.520392	8827.333984
6801.511609	0.618325	0.520392	9485.232422
6801.512484	0.089524	0.520392	9563.565430
6801.513370	0.085906	0.520392	9639.677734
6801.514459	0.085909	0.520392	9733.233398
6801.515416	0.085876	0.520392	9815.416992
6801.516274	0.085917	0.520392	9889.133789
6801.517294	0.086041	0.520392	9976.895508
6801.518329	0.085862	0.520392	10065.762695
6801.519221	0.085884	0.520392	10142.371094
6801.520136	0.085876	0.520392	10220.948242
6801.521189	0.085928	0.520392	10311.429687
6802.552764	1.025863	0.523848	435.991791
6802.553637	1.510906	0.523848	1755.012573
6802.554763	1.500948	0.523848	3445.080566
6802.555672	1.461738	0.523848	4773.800781
6802.556554	1.425956	0.523848	6031.494141
6802.557588	1.385786	0.523848	7464.396973
6802.558576	1.348689	0.523848	8796.901367
6802.559463	0.869297	0.523848	9567.967773
6802.560328	0.103275	0.523848	9657.300781
6802.561423	0.085898	0.523848	9751.359375
6802.562311	0.085822	0.523848	9827.569336
6802.563167	0.086034	0.523848	9901.214844
6802.564226	0.085990	0.523848	9992.278320
6802.565201	0.085822	0.523848	10075.954102
6802.566118	0.085913	0.523848	10154.736328
6802.566988	0.085924	0.523848	10229.490234
6802.568075	0.085942	0.523848	10322.909180
6802.568982	0.085909	0.523848	10400.829102
6803.559929	1.061528	0.521181	516.964294
6803.560997	1.519581	0.521181	2139.877197
6803.561939	1.497437	0.521181	3550.462402
6803.562804	1.460314	0.521181	4813.633789
6803.563853	1.418500	0.521181	6301.640137
6803.564876	1.378729	0.521181	7712.080078
6803.565749	1.345569	0.521181	8886.761719
6803.566729	0.675901	0.521181	9549.144531
6803.567785	0.087645	0.521181	9641.698242
6803.568711	0.085822	0.521181	9721.168945
6803.569574	0.085869	0.521181	9795.274414
6803.570640	0.086008	0.521181	9886.958984
6803.571649	0.085895	0.521181	9973.626953
6803.572539	0.085946	0.521181	10050.119141
6803.573512	0.086041	0.521181	10133.836914
6803.574561	0.085972	0.521181	10224.021484
6803.575468	0.085807	0.521181	10301.848633
6803.576327	0.085939	0.521181	10375.669922
6804.612043	1.042581	0.535691	457.692871
6804.612908	1.512063	0.535691	1765.627441
6804.614009	1.501168	0.535691	3418.413574
6804.615001	1.459091	0.535691	4865.831543
6804.615888	1.423378	0.535691	6128.367676
6804.616901	1.384167	0.535691	7530.529297
6804.617951	1.345093	0.535691	8942.876953
6804.618830	0.723300	0.535691	9578.657227
6804.619727	0.093516	0.535691	9662.541016
6804.620810	0.086005	0.535691	9755.683594
6804.621771	0.085851	0.535691	9838.186523
6804.622639	0.085833	0.535691	9912.689453
6804.623665	0.085917	0.535691	10000.839844
6804.624695	0.086034	0.535691	10089.455078
6804.625579	0.085869	0.535691	10165.363281
6804.626510	0.085917	0.535691	10245.351562
6804.627588	0.085983	0.535691	10338.041016
6804.628531	0.085917	0.535691	10419.060547
6805.617157	1.091492	0.515114	545.745850
6805.618146	1.520453	0.515114	2049.473633
6805.619043	1.501747	0.515114	3396.540527
6805.620027	1.460449	0.515114	4833.622559
6805.621100	1.417515	0.515114	6354.615723
6805.622005	1.381293	0.515114	7604.685547
6805.622875	1.347217	0.515114	8776.763672
6805.624000	0.586003	0.515114	9436.017578
6805.624973	0.087268	0.515114	9520.929687
6805.625835	0.085844	0.515114	9594.926758
6805.626888	0.085983	0.515114	9685.466797
6805.627906	0.085913	0.515114	9772.926758
6805.628789	0.085957	0.515114	9848.827148
6805.629705	0.086019	0.515114	9927.621094
6805.630750	0.085931	0.515114	10017.418945
6805.631684	0.085829	0.515114	10097.583008
6805.632545	0.085950	0.515114	10171.585937
6805.633587	0.086016	0.515114	10261.213867
6806.672364	1.079956	0.551112	507.579346
6806.673242	1.515311	0.551112	1838.022583
6806.674231	1.503527	0.551112	3325.010254
6806.675147	1.464434	0.551112	4666.431641
6806.676072	1.427329	0.551112	5986.710937
6806.676938	1.391807	0.551112	7192.015625
6806.677994	1.353197	0.551112	8620.991211
6806.678887	1.017521	0.551112	9529.637695
6806.679766	0.123289	0.551112	9638.008789
6806.680754	0.085873	0.551112	9722.851562
6806.681691	0.085840	0.551112	9803.283203
6806.682607	0.085913	0.551112	9881.979492
6806.683467	0.085906	0.551112	9955.858398
6806.684510	0.085825	0.551112	10045.374023
6806.685391	0.085880	0.551112	10121.034180
6806.686266	0.085818	0.551112	10196.125000
6806.687211	0.086056	0.551112	10277.448242
6806.688179	0.085909	0.551112	10360.608398
6807.672816	1.057676	0.502220	504.511322
6807.673898	1.520281	0.502220	2149.455078
6807.674839	1.496642	0.502220	3557.794922
6807.675712	1.459783	0.502220	4832.185059
6807.676758	1.417654	0.502220	6315.050781
6807.677787	1.377715	0.502220	7732.719238
6807.678679	1.344287	0.502220	8931.823242
6807.679655	0.643341	0.502220	9559.724609
6807.680698	0.087502	0.502220	9650.989258
6807.681618	0.085950	0.502220	9730.063477
6807.682478	0.085997	0.502220	9804.021484
6807.683540	0.086056	0.502220	9895.413086
6807.684551	0.085873	0.502220	9982.230469
6807.685442	0.085898	0.502220	10058.765625
6807.686414	0.086074	0.502220	10142.429687
6807.687462	0.085946	0.502220	10232.500977
6807.688378	0.086019	0.502220	10311.294922
6807.689242	0.086078	0.502220	10385.666016
6808.730144	1.112911	0.555462	569.810608
6808.731153	1.521259	0.555462	2104.760498
6808.732036	1.500780	0.555462	3429.949219
6808.733039	1.459241	0.555462	4893.567383
6808.734092	1.416255	0.555462	6384.883789
6808.734993	1.380637	0.555462	7628.837891
6808.735856	1.346898	0.555462	8791.210937
6808.736954	0.624807	0.555462	9477.249023
6808.737909	0.087675	0.555462	9560.978516
6808.738776	0.085800	0.555462	9635.367187
6808.739776	0.086027	0.555462	9721.393555
6808.740826	0.085968	0.555462	9811.660156
6808.741719	0.085865	0.555462	9888.337891
6808.742584	0.085935	0.555462	9962.671875
6808.743706	0.085920	0.555462	10059.074219
6808.744669	0.085836	0.555462	10141.734375
6808.745532	0.085887	0.555462	10215.855469
6808.746550	0.085979	0.555462	10303.381836
6809.730598	1.112527	0.498643	575.176392
6809.731505	1.518838	0.498643	1952.762329
6809.732374	1.504995	0.498643	3260.603027
6809.733357	1.464078	0.498643	4699.791992
6809.734367	1.422495	0.498643	6136.512207
6809.735262	1.387445	0.498643	7378.275391
6809.736129	1.353600	0.498643	8551.846680
6809.737227	0.814237	0.498643	9445.878906
6809.738154	0.094845	0.498643	9533.799805
6809.739033	0.085829	0.498643	9609.243164
6809.740008	0.086034	0.498643	9693.125977
6809.741009	0.085854	0.498643	9779.066406
6809.741896	0.085898	0.498643	9855.258789
6809.742757	0.085909	0.498643	9929.226562
6809.743831	0.086012	0.498643	10021.603516
6809.744745	0.085847	0.498643	10100.067383
6809.745615	0.085869	0.498643	10174.773437
6809.746595	0.086008	0.498643	10259.061523
6810.787794	1.044258	0.551684	459.473419
6810.788672	1.512774	0.551684	1787.688477
6810.789547	1.508972	0.551684	3108.039062
6810.790453	1.470952	0.551684	4440.721680
6810.791434	1.430973	0.551684	5844.505859
6810.792343	1.394718	0.551684	7112.304687
6810.793222	1.360411	0.551684	8308.106445
6810.794261	1.096773	0.551684	9447.653320
6810.795162	0.140522	0.551684	9574.263672
6810.796079	0.085851	0.551684	9652.989258
6810.796945	0.085935	0.551684	9727.409180
6810.797939	0.085865	0.551684	9812.759766
6810.798866	0.085906	0.551684	9892.394531
6810.799727	0.085887	0.551684	9966.343750
6810.800757	0.085957	0.551684	10054.879883
6810.801633	0.085931	0.551684	10130.156250
6810.802546	0.085964	0.551684	10208.641602
6810.803405	0.085895	0.551684	10282.424805
6811.787718	1.033696	0.505624	446.556793
6811.788587	1.512429	0.505624	1760.857666
6811.789610	1.503860	0.505624	3299.306152
6811.790657	1.460577	0.505624	4828.530762
6811.791550	1.423967	0.505624	6100.133789
6811.792497	1.386973	0.505624	7413.596680
6811.793564	1.346935	0.505624	8850.776367
6811.794511	0.728423	0.505624	9540.592773
6811.795373	0.093849	0.505624	9621.490234
6811.796437	0.086067	0.505624	9713.065430
6811.797446	0.085931	0.505624	9799.770508
6811.798326	0.085844	0.505624	9875.312500
6811.799304	0.086056	0.505624	9959.475586
6811.800334	0.085968	0.505624	10048.022461
6811.801254	0.085844	0.505624	10126.998047
6811.802120	0.085979	0.505624	10201.456055
6811.803204	0.085997	0.505624	10294.676758
6811.804197	0.085924	0.505624	10379.999023
6812.845492	1.041500	0.542697	435.347076
6812.846605	1.519819	0.542697	2126.906006
6812.847577	1.497070	0.542697	3582.058350
6812.848452	1.460057	0.542697	4859.608398
6812.849488	1.418024	0.542697	6328.680664
6812.850527	1.377825	0.542697	7760.240234
6812.851430	1.343811	0.542697	8973.701172
6812.852365	0.670162	0.542697	9600.302734
6812.853426	0.087817	0.542697	9693.476562
6812.854349	0.085924	0.542697	9772.784180
6812.855213	0.085909	0.542697	9847.009766
6812.856254	0.086074	0.542697	9936.613281
6812.857273	0.085968	0.542697	10024.214844
6812.858148	0.085928	0.542697	10099.401367
6812.859095	0.086107	0.542697	10180.945312
6812.860156	0.086063	0.542697	10272.258789
6812.861070	0.085924	0.542697	10350.792969
6812.861936	0.085983	0.542697	10425.253906
6813.844940	1.047598	0.514748	457.800171
6813.845803	1.512078	0.514748	1762.723145
6813.846920	1.500930	0.514748	3439.262207
6813.847819	1.462288	0.514748	4753.858887
6813.848690	1.426956	0.514748	5996.737305
6813.849720	1.387192	0.514748	7425.545410
6813.850711	1.349246	0.514748	8762.647461
6813.851604	0.893013	0.514748	9560.107422
6813.852467	0.105249	0.514748	9650.937500
6813.853568	0.085902	0.514748	9745.515625
6813.854473	0.085961	0.514748	9823.309570
6813.855345	0.085979	0.514748	9898.283203
6813.856324	0.085997	0.514748	9982.474609
6813.857325	0.085906	0.514748	10068.465820
6813.858214	0.085920	0.514748	10144.848633
6813.859073	0.085961	0.514748	10218.688477
6813.860160	0.086041	0.514748	10312.214844
6813.861079	0.085950	0.514748	10391.202148
6814.901688	1.027156	0.539474	433.459717
6814.902755	1.517955	0.539474	2053.118164
6814.903771	1.497063	0.539474	3574.134277
6814.904653	1.459720	0.539474	4861.607910
6814.905622	1.421045	0.539474	6238.600586
6814.906681	1.379469	0.539474	7699.458008
6814.907594	1.344990	0.539474	8927.433594
6814.908467	0.746481	0.539474	9579.111328
6814.909512	0.089557	0.539474	9672.698242
6814.910512	0.085887	0.539474	9758.585937
6814.911402	0.085968	0.539474	9835.097656
6814.912369	0.086052	0.539474	9918.310547
6814.913413	0.086019	0.539474	10008.114258
6814.914325	0.085961	0.539474	10086.510742
6814.915186	0.085950	0.539474	10160.513672
6814.916280	0.086049	0.539474	10254.650391
6814.917269	0.085928	0.539474	10339.632812
6814.918169	0.085906	0.539474	10416.948242
6815.903247	1.095535	0.534543	554.340576
6815.904162	1.518743	0.534543	1943.990112
6815.905023	1.505021	0.534543	3239.812988
6815.906097	1.460779	0.534543	4808.689453
6815.907107	1.419749	0.534543	6242.635742
6815.907991	1.384991	0.534543	7466.968262
6815.908972	1.348345	0.534543	8789.694336
6815.910042	0.637240	0.534543	9471.541016
6815.910955	0.089136	0.534543	9552.921875
6815.911820	0.085913	0.534543	9627.236328
6815.912930	0.085994	0.534543	9722.689453
6815.913896	0.085858	0.534543	9805.628906
6815.914759	0.085924	0.534543	9879.781250
6815.915811	0.086071	0.534543	9970.327148
6815.916851	0.085928	0.534543	10059.692383
6815.917742	0.085844	0.534543	10136.178711
6815.918646	0.085957	0.534543	10213.883789
6815.919736	0.086034	0.534543	10307.661133
6816.959518	1.114794	0.540473	569.659546
6816.960481	1.520621	0.540473	2034.017822
6816.961349	1.502922	0.540473	3338.554199
6816.962403	1.458973	0.540473	4876.312012
6816.963451	1.416892	0.540473	6361.214844
6816.964333	1.381835	0.540473	7579.993164
6816.965263	1.346909	0.540473	8832.619141
6816.966338	0.600549	0.540473	9478.209961
6816.967277	0.087887	0.540473	9560.735352
6816.968134	0.085833	0.540473	9634.293945
6816.969204	0.086030	0.540473	9726.346680
6816.970228	0.085803	0.540473	9814.208984
6816.971101	0.085942	0.540473	9889.236328
6816.972053	0.085983	0.540473	9971.091797
6816.973105	0.086008	0.540473	10061.572266
6816.974026	0.085928	0.540473	10140.711914
6816.974891	0.085924	0.540473	10215.036133
6816.975954	0.085920	0.540473	10306.369141
6817.961408	1.028822	0.550971	438.278198
6817.962274	1.511543	0.550971	1747.274414
6817.963338	1.502813	0.550971	3346.267090
6817.964236	1.464921	0.550971	4661.765625
6817.965114	1.428966	0.550971	5916.397949
6817.966057	1.392026	0.550971	7229.079102
6817.967066	1.353915	0.550971	8595.178711
6817.967990	1.012416	0.550971	9530.650391
6817.968854	0.124153	0.550971	9637.917969
6817.969893	0.085942	0.550971	9727.211914
6817.970778	0.085902	0.550971	9803.235352
6817.971645	0.085913	0.550971	9877.721680
6817.972512	0.086016	0.550971	9952.296875
6817.973575	0.085935	0.550971	10043.645508
6817.974476	0.085909	0.550971	10121.049805
6817.975349	0.086012	0.550971	10196.138672
6817.976335	0.085953	0.550971	10280.888672
6817.977275	0.085975	0.550971	10361.705078
6819.015712	1.106166	0.545118	566.356873
6819.016727	1.520856	0.545118	2110.025391
6819.017602	1.500560	0.545118	3423.015625
6819.018578	1.459995	0.545118	4847.970703
6819.019622	1.417255	0.545118	6327.584473
6819.020547	1.381033	0.545118	7605.039551
6819.021420	1.347345	0.545118	8781.271484
6819.022497	0.627352	0.545118	9456.929687
6819.023506	0.087294	0.545118	9545.008789
6819.024398	0.085957	0.545118	9621.682617
6819.025384	0.086008	0.545118	9706.486328
6819.026438	0.085994	0.545118	9797.124023
6819.027335	0.085946	0.545118	9874.217773
6819.028198	0.086016	0.545118	9948.449219
6819.029313	0.085975	0.545118	10044.311523
6819.030271	0.085950	0.545118	10126.651367
6819.031135	0.085975	0.545118	10200.933594
6819.032179	0.086052	0.545118	10290.772461
6820.018102	1.042320	0.563434	436.732300
6820.019210	1.519105	0.563434	2119.900879
6820.020188	1.496510	0.563434	3583.487549
6820.021065	1.459662	0.563434	4863.610840
6820.022069	1.419020	0.563434	6288.306641
6820.023112	1.378502	0.563434	7726.084473
6820.024007	1.344803	0.563434	8929.683594
6820.024946	0.701675	0.563434	9588.556641
6820.026016	0.087927	0.563434	9682.638672
6820.026948	0.085917	0.563434	9762.712891
6820.027819	0.085920	0.563434	9837.549805
6820.028864	0.085975	0.563434	9927.393555
6820.029866	0.085854	0.563434	10013.419922
6820.030754	0.085840	0.563434	10089.645508
6820.031699	0.085972	0.563434	10170.888672
6820.032741	0.085909	0.563434	10260.406250
6820.033668	0.086056	0.563434	10340.179687
6820.034526	0.085972	0.563434	10413.943359
6821.073358	1.038765	0.549488	457.056427
6821.074223	1.512576	0.549488	1765.434448
6821.075222	1.504061	0.549488	3267.991699
6821.076289	1.461006	0.549488	4826.884766
6821.077163	1.424322	0.549488	6071.742676
6821.078062	1.387855	0.549488	7319.424805
6821.079165	1.347601	0.549488	8805.829102
6821.080120	0.760232	0.549488	9531.850586
6821.080986	0.094709	0.549488	9613.869141
6821.082011	0.086041	0.549488	9702.061523
6821.083051	0.085880	0.549488	9791.376953
6821.083940	0.085913	0.549488	9867.753906
6821.084869	0.085924	0.549488	9947.577148
6821.085938	0.086027	0.549488	10039.540039
6821.086891	0.085902	0.549488	10121.404297
6821.087755	0.085876	0.549488	10195.601562
6821.088801	0.086045	0.549488	10285.604492
6821.089811	0.085906	0.549488	10372.369141
6822.076389	1.072306	0.574254	497.549957
6822.077267	1.515073	0.574254	1827.784180
6822.078226	1.505087	0.574254	3271.162109
6822.079273	1.461434	0.574254	4801.284180
6822.080191	1.423810	0.574254	6108.341797
6822.081057	1.388668	0.574254	7310.928711
6822.082149	1.348799	0.574254	8783.817383
6822.083158	0.711010	0.574254	9501.225586
6822.084036	0.092593	0.574254	9582.522461
6822.085037	0.085869	0.574254	9668.477539
6822.086089	0.085909	0.574254	9758.854492
6822.086988	0.085902	0.574254	9836.080078
6822.087847	0.085902	0.574254	9909.870117
6822.088930	0.085939	0.574254	10002.941406
6822.089910	0.085833	0.574254	10087.057617
6822.090810	0.085891	0.574254	10164.359375
6822.091727	0.085968	0.574254	10243.192383
6822.092588	0.085990	0.574254	10317.229492
6823.131065	1.040438	0.555442	439.064911
6823.132167	1.519233	0.555442	2113.260254
6823.133141	1.496836	0.555442	3571.178467
6823.134007	1.460292	0.555442	4835.791016
6823.135029	1.419305	0.555442	6286.321289
6823.136080	1.378751	0.555442	7735.388672
6823.136962	1.345126	0.555442	8921.790039
6823.137849	0.734352	0.555442	9573.160156
6823.138946	0.088770	0.555442	9670.540039
6823.139901	0.085880	0.555442	9752.555664
6823.140757	0.086067	0.555442	9826.228516
6823.141776	0.086074	0.555442	9913.938477
6823.142808	0.086012	0.555442	10002.703125
6823.143697	0.085844	0.555442	10079.017578
6823.144614	0.085997	0.555442	10157.876953
6823.145675	0.086082	0.555442	10249.208984
6823.146619	0.085928	0.555442	10330.325195
6823.147481	0.085928	0.555442	10404.394531
6824.134076	1.030265	0.577767	436.832306
6824.135115	1.517758	0.577767	2013.782471
6824.136145	1.497114	0.577767	3555.810059
6824.137041	1.459266	0.577767	4863.312500
6824.138000	1.420979	0.577767	6226.031250
6824.139050	1.379381	0.577767	7674.381348
6824.139982	1.344650	0.577767	8927.594727
6824.140857	0.745155	0.577767	9579.605469
6824.141918	0.089176	0.577767	9674.221680
6824.142908	0.085884	0.577767	9759.247070
6824.143790	0.085873	0.577767	9834.987305
6824.144768	0.086001	0.577767	9919.096680
6824.145810	0.086008	0.577767	10008.717773
6824.146720	0.085975	0.577767	10086.955078
6824.147579	0.085968	0.577767	10160.801758
6824.148667	0.086082	0.577767	10254.458008
6824.149663	0.086049	0.577767	10340.162109
6824.150544	0.085906	0.577767	10415.844727
6825.187256	1.020560	0.564905	428.635315
6825.188188	1.510803	0.564905	1836.703857
6825.189253	1.500388	0.564905	3434.617187
6825.190146	1.462496	0.564905	4740.626465
6825.191018	1.426945	0.564905	5984.921875
6825.192049	1.386511	0.564905	7414.415039
6825.193020	1.350135	0.564905	8725.396484
6825.193904	0.938243	0.564905	9554.803711
6825.194809	0.110680	0.564905	9654.968750
6825.195880	0.085789	0.564905	9746.848633
6825.196753	0.085924	0.564905	9821.860352
6825.197614	0.085931	0.564905	9895.847656
6825.198651	0.086093	0.564905	9985.125977
6825.199599	0.085997	0.564905	10066.651367
6825.200522	0.085811	0.564905	10145.854492
6825.201382	0.086049	0.564905	10219.856445
6825.202468	0.086001	0.564905	10313.253906
6825.203356	0.085913	0.564905	10389.544922
6826.192408	1.105990	0.583503	561.842896
6826.193292	1.517838	0.583503	1903.611816
6826.194162	1.504160	0.583503	3212.231201
6826.195281	1.459263	0.583503	4845.146484
6826.196244	1.420668	0.583503	6213.249512
6826.197116	1.386207	0.583503	7422.022461
6826.198158	1.347085	0.583503	8825.684570
6826.199207	0.628114	0.583503	9484.576172
6826.200087	0.089751	0.583503	9563.556641
6826.201007	0.085854	0.583503	9642.542969
6826.202095	0.085986	0.583503	9736.095703
6826.203024	0.085807	0.583503	9815.810547
6826.203891	0.085829	0.583503	9890.224609
6826.204929	0.085961	0.583503	9979.452148
6826.205948	0.085906	0.583503	10066.990234
6826.206838	0.085807	0.583503	10143.358398
6826.207801	0.085935	0.583503	10226.114258
6826.208857	0.085906	0.583503	10316.831055
6827.244596	1.145083	0.572429	628.650635
6827.245668	1.521471	0.572429	2259.667480
6827.246558	1.496345	0.572429	3591.414795
6827.247453	1.457520	0.572429	4895.894531
6827.248566	1.413860	0.572429	6469.520508
6827.249529	1.376528	0.572429	7795.117187
6827.250394	1.343844	0.572429	8957.541992
6827.251441	0.529149	0.572429	9511.561523
6827.252462	0.086667	0.572429	9600.048828
6827.253342	0.085997	0.572429	9675.726562
6827.254276	0.085957	0.572429	9756.010742
6827.255321	0.086030	0.572429	9845.912109
6827.256250	0.085920	0.572429	9925.732422
6827.257107	0.085931	0.572429	9999.375977
6827.258146	0.085979	0.572429	10088.708008
6827.259181	0.085902	0.572429	10177.616211
6827.260049	0.085862	0.572429	10252.144531
6827.261006	0.085990	0.572429	10334.436523
6828.248592	1.096099	0.585352	556.818115
6828.249514	1.519072	0.585352	1957.402710
6828.250384	1.504200	0.585352	3266.057129
6828.251433	1.460479	0.585352	4798.099121
6828.252452	1.419346	0.585352	6244.412598
6828.253343	1.384416	0.585352	7477.927734
6828.254312	1.348667	0.585352	8784.786133
6828.255374	0.650017	0.585352	9475.104492
6828.256299	0.089077	0.585352	9557.500977
6828.257161	0.085876	0.585352	9631.526367
6828.258239	0.086012	0.585352	9724.247070
6828.259220	0.085811	0.585352	9808.426758
6828.260112	0.085928	0.585352	9885.074219
6828.261093	0.086041	0.585352	9969.480469
6828.262136	0.085979	0.585352	10059.156250
6828.263037	0.085818	0.585352	10136.478516
6828.263894	0.085972	0.585352	10210.156250
6828.264983	0.085968	0.585352	10303.775391
6829.302262	1.085511	0.580784	524.302002
6829.303143	1.516267	0.580784	1860.133301
6829.304010	1.507119	0.580784	3166.805664
6829.305063	1.463547	0.580784	4707.920898
6829.306009	1.425293	0.580784	6056.248047
6829.306889	1.390360	0.580784	7279.764648
6829.307819	1.355273	0.580784	8540.168945
6829.308876	0.898231	0.580784	9489.599609
6829.309757	0.105319	0.580784	9582.385742
6829.310614	0.085913	0.580784	9656.013672
6829.311643	0.085979	0.580784	9744.486328
6829.312594	0.085909	0.580784	9826.186523
6829.313468	0.085946	0.580784	9901.303711
6829.314355	0.085961	0.580784	9977.550781
6829.315446	0.085975	0.580784	10071.349609
6829.316331	0.085876	0.580784	10147.350586
6829.317195	0.085880	0.580784	10221.550781
6829.318238	0.085994	0.580784	10311.242187
6830.306245	1.032092	0.582746	443.799652
6830.307133	1.511466	0.582746	1785.981567
6830.308230	1.499879	0.582746	3431.349121
6830.309191	1.459838	0.582746	4834.252930
6830.310065	1.424040	0.582746	6078.864258
6830.311102	1.383245	0.582746	7513.289062
6830.312146	1.344514	0.582746	8916.961914
6830.313042	0.724314	0.582746	9565.947266
6830.313998	0.093223	0.582746	9655.068359
6830.315051	0.086016	0.582746	9745.642578
6830.315989	0.085950	0.582746	9826.263672
6830.316856	0.086034	0.582746	9900.855469
6830.317915	0.086027	0.582746	9991.958008
6830.318927	0.085961	0.582746	10078.950195
6830.319825	0.085957	0.582746	10156.139648
6830.320791	0.086093	0.582746	10239.304687
6830.321824	0.085931	0.582746	10328.072266
6830.322734	0.085880	0.582746	10406.223633
6831.358926	1.055859	0.592390	466.689819
6831.359805	1.513722	0.592390	1797.251465
6831.360786	1.504439	0.592390	3273.105713
6831.361850	1.460621	0.592390	4827.207031
6831.362758	1.423180	0.592390	6119.454102
6831.363628	1.386969	0.592390	7326.117187
6831.364759	1.346440	0.592390	8848.941406
6831.365725	0.713591	0.592390	9538.270508
6831.366587	0.092933	0.592390	9618.378906
6831.367649	0.085994	0.592390	9709.704102
6831.368679	0.085880	0.592390	9798.160156
6831.369561	0.085898	0.592390	9873.922852
6831.370482	0.085953	0.592390	9953.085937
6831.371546	0.085935	0.592390	10044.520508
6831.372483	0.085931	0.592390	10125.038086
6831.373346	0.085840	0.592390	10199.118164
6831.374409	0.086041	0.592390	10290.580078
6831.375430	0.085939	0.592390	10378.323242
6832.364105	1.145273	0.583157	645.934204
6832.365167	1.521193	0.583157	2261.440674
6832.366055	1.496019	0.583157	3589.905762
6832.366944	1.457395	0.583157	4885.529785
6832.368036	1.414497	0.583157	6430.160645
6832.368993	1.377513	0.583157	7748.440918
6832.369859	1.344840	0.583157	8913.072266
6832.370900	0.584011	0.583157	9521.028320
6832.371925	0.087023	0.583157	9610.226562
6832.372795	0.085884	0.583157	9684.945312
6832.373730	0.085942	0.583157	9765.301758
6832.374795	0.085887	0.583157	9856.771484
6832.375735	0.085844	0.583157	9937.464844
6832.376607	0.085811	0.583157	10012.291992
6832.377645	0.085968	0.583157	10101.526367
6832.378651	0.085891	0.583157	10187.932617
6832.379547	0.085822	0.583157	10264.829102
6832.380504	0.085935	0.583157	10347.069336
6833.417154	1.051608	0.600575	450.088104
6833.418255	1.519354	0.600575	2122.896973
6833.419162	1.499092	0.600575	3482.573242
6833.420037	1.462500	0.600575	4762.260742
6833.421041	1.422403	0.600575	6190.353516
6833.422045	1.382190	0.600575	7578.072266
6833.422938	1.348986	0.600575	8782.716797
6833.423805	0.889091	0.600575	9553.558594
6833.424871	0.093922	0.600575	9653.679687
6833.425782	0.085807	0.600575	9731.849609
6833.426657	0.085909	0.600575	9807.020508
6833.427637	0.086129	0.600575	9891.426758
6833.428648	0.085953	0.600575	9978.325195
6833.429536	0.085928	0.600575	10054.628906
6833.430394	0.085898	0.600575	10128.330078
6833.431467	0.086008	0.600575	10220.617187
6833.432382	0.086027	0.600575	10299.331055
6833.433260	0.085939	0.600575	10374.785156
6834.418647	1.062675	0.577235	475.015503
6834.419525	1.514136	0.577235	1804.426636
6834.420539	1.503574	0.577235	3329.050781
6834.421609	1.459468	0.577235	4890.681152
6834.422495	1.422389	0.577235	6150.917969
6834.423383	1.385955	0.577235	7381.645508
6834.424474	1.345953	0.577235	8850.080078
6834.425449	0.690190	0.577235	9523.015625
6834.426318	0.091860	0.577235	9602.841797
6834.427335	0.086030	0.577235	9690.334961
6834.428370	0.085983	0.577235	9779.327148
6834.429261	0.086016	0.577235	9855.966797
6834.430192	0.086016	0.577235	9936.046875
6834.431255	0.086125	0.577235	10027.598633
6834.432193	0.085968	0.577235	10108.236328
6834.433056	0.086063	0.577235	10182.508789
6834.434110	0.086085	0.577235	10273.242187
6834.435108	0.085990	0.577235	10359.060547
6835.475413	1.041500	0.598714	460.343079
6835.476275	1.512755	0.598714	1764.338135
6835.477306	1.502794	0.598714	3313.718750
6835.478341	1.459757	0.598714	4824.567383
6835.479234	1.423517	0.598714	6095.768066
6835.480189	1.386383	0.598714	7419.763672
6835.481242	1.346521	0.598714	8837.650391
6835.482174	0.750714	0.598714	9537.316406
6835.483038	0.094537	0.598714	9618.997070
6835.484106	0.086104	0.598714	9710.956055
6835.485111	0.086016	0.598714	9797.401367
6835.486004	0.085997	0.598714	9874.197266
6835.486970	0.086052	0.598714	9957.324219
6835.488028	0.086016	0.598714	10048.329102
6835.488940	0.085862	0.598714	10126.634766
6835.489802	0.085990	0.598714	10200.757812
6835.490889	0.086104	0.598714	10294.352539
6835.491872	0.085942	0.598714	10378.833984
6836.476853	1.019586	0.580112	428.226196
6836.477859	1.514235	0.580112	1951.546265
6836.478784	1.502530	0.580112	3341.386963
6836.479710	1.464060	0.580112	4697.106445
6836.480578	1.427457	0.580112	5936.139160
6836.481635	1.387075	0.580112	7402.277344
6836.482527	1.353175	0.580112	8609.309570
6836.483411	1.042888	0.580112	9531.222656
6836.484401	0.125574	0.580112	9655.541016
6836.485358	0.085917	0.580112	9737.763672
6836.486284	0.085913	0.580112	9817.319336
6836.487149	0.086030	0.580112	9891.735352
6836.488177	0.085968	0.580112	9980.110352
6836.489058	0.085876	0.580112	10055.767578
6836.489930	0.086005	0.580112	10130.763672
6836.490856	0.086136	0.580112	10210.526367
6836.491851	0.085994	0.580112	10296.089844
6836.492764	0.085990	0.580112	10374.598633
6837.532116	1.053677	0.598368	468.886139
6837.532984	1.512979	0.598368	1782.151489
6837.534099	1.500004	0.598368	3454.655762
6837.535079	1.459065	0.598368	4884.539551
6837.535940	1.423594	0.598368	6110.253906
6837.536983	1.382498	0.598368	7552.198730
6837.538046	1.343661	0.598368	8980.510742
6837.538931	0.679186	0.598368	9581.589844
6837.539854	0.092142	0.598368	9666.637695
6837.540919	0.086056	0.598368	9758.287109
6837.541858	0.086027	0.598368	9839.066406
6837.542724	0.085887	0.598368	9913.445312
6837.543767	0.086133	0.598368	10003.282227
6837.544789	0.086001	0.598368	10091.174805
6837.545678	0.086045	0.598368	10167.668945
6837.546629	0.085997	0.598368	10249.452148
6837.547689	0.086071	0.598368	10340.686523
6837.548619	0.085968	0.598368	10420.636719
6838.534159	1.106037	0.590819	560.760986
6838.535103	1.519673	0.590819	1995.332153
6838.535974	1.503702	0.590819	3305.056885
6838.537041	1.459519	0.590819	4862.363770
6838.538050	1.418573	0.590819	6293.704102
6838.538944	1.383424	0.590819	7530.485352
6838.539900	1.348209	0.590819	8819.373047
6838.540948	0.647087	0.590819	9497.520508
6838.541865	0.089454	0.590819	9579.549805
6838.542723	0.085961	0.590819	9653.303711
6838.543795	0.086096	0.590819	9745.598633
6838.544799	0.086019	0.590819	9831.961914
6838.545677	0.086045	0.590819	9907.509766
6838.546636	0.086023	0.590819	9990.005859
6838.547703	0.086136	0.590819	10081.913086
6838.548597	0.086060	0.590819	10158.850586
6838.549470	0.086030	0.590819	10233.955078
6838.550530	0.086104	0.590819	10325.224609
6839.586825	1.069940	0.593756	538.179932
6839.587866	1.520761	0.593756	2121.291504
6839.588749	1.499978	0.593756	3445.771973
6839.589609	1.463225	0.593756	4704.145508
6839.590650	1.420979	0.593756	6183.384766
6839.591607	1.383435	0.593756	7507.332031
6839.592488	1.350520	0.593756	8697.140625
6839.593419	0.866525	0.593756	9503.875000
6839.594486	0.092472	0.593756	9602.542969
6839.595378	0.085924	0.593756	9679.187500
6839.596242	0.085909	0.593756	9753.413086
6839.597285	0.086078	0.593756	9843.192383
6839.598246	0.085924	0.593756	9925.765625
6839.599121	0.086001	0.593756	10001.016602
6839.600002	0.085950	0.593756	10076.738281
6839.601090	0.085968	0.593756	10170.271484
6839.601965	0.085983	0.593756	10245.505859
6839.602822	0.086041	0.593756	10319.243164
6840.593466	1.135569	0.599738	607.529358
6840.594493	1.521174	0.599738	2169.775391
6840.595377	1.498696	0.599738	3494.622803
6840.596356	1.458497	0.599738	4922.491699
6840.597411	1.415409	0.599738	6415.748047
6840.598336	1.378898	0.599738	7691.228516
6840.599202	1.345745	0.599738	8856.643555
6840.600292	0.578090	0.599738	9486.761719
6840.601287	0.086916	0.599738	9573.243164
6840.602154	0.085898	0.599738	9647.716797
6840.603130	0.085986	0.599738	9731.639648
6840.604180	0.086001	0.599738	9821.940430
6840.605088	0.085994	0.599738	9900.022461
6840.605953	0.085822	0.599738	9974.257812
6840.607045	0.086049	0.599738	10068.222656
6840.608035	0.085946	0.599738	10153.309570
6840.608928	0.085961	0.599738	10230.072266
6840.609916	0.086071	0.599738	10315.110352
6841.642433	1.040255	0.596265	446.269470
6841.643495	1.518267	0.596265	2058.668701
6841.644484	1.497462	0.596265	3539.658691
6841.645371	1.460010	0.596265	4834.687500
6841.646350	1.420887	0.596265	6225.736328
6841.647395	1.379740	0.596265	7667.564453
6841.648313	1.345353	0.596265	8902.598633
6841.649180	0.772097	0.596265	9572.006836
6841.650280	0.089648	0.596265	9670.620117
6841.651279	0.085957	0.596265	9756.491211
6841.652156	0.085928	0.596265	9831.849609
6841.653134	0.086012	0.596265	9915.969727
6841.654207	0.085990	0.596265	10008.237305
6841.655073	0.085851	0.596265	10082.583984
6841.655942	0.085939	0.596265	10157.264648
6841.657047	0.085961	0.596265	10252.250977
6841.658015	0.085928	0.596265	10335.428711
6841.658880	0.086012	0.596265	10409.829102
6842.652602	1.024296	0.606791	430.204193
6842.653630	1.516593	0.606791	1989.261963
6842.654605	1.499927	0.606791	3451.690430
6842.655479	1.462862	0.606791	4730.232422
6842.656373	1.425483	0.606791	6004.614746
6842.657475	1.383691	0.606791	7529.442871
6842.658368	1.349799	0.606791	8734.812500
6842.659238	0.955811	0.606791	9566.367187
6842.660286	0.099987	0.606791	9671.153320
6842.661262	0.085968	0.606791	9755.058594
6842.662135	0.086107	0.606791	9830.230469
6842.663014	0.086038	0.606791	9905.857422
6842.664090	0.085939	0.606791	9998.327148
6842.664974	0.085950	0.606791	10074.306641
6842.665830	0.085844	0.606791	10147.789062
6842.666917	0.086038	0.606791	10241.311523
6842.667865	0.085902	0.606791	10322.747070
6842.668745	0.085990	0.606791	10398.417969
6843.698116	1.039614	0.590593	449.113342
6843.698984	1.512136	0.590593	1761.647461
6843.700090	1.500677	0.590593	3421.396729
6843.701075	1.459175	0.590593	4858.683594
6843.701970	1.422916	0.590593	6132.193359
6843.702968	1.384266	0.590593	7513.691406
6843.704026	1.345067	0.590593	8936.772461
6843.704914	0.725142	0.590593	9580.698242
6843.705792	0.093787	0.590593	9663.042969
6843.706875	0.086034	0.590593	9756.217773
6843.707823	0.085887	0.590593	9837.638672
6843.708682	0.085939	0.590593	9911.459961
6843.709701	0.086085	0.590593	9999.180664
6843.710762	0.085953	0.590593	10090.376953
6843.711644	0.086125	0.590593	10166.339844
6843.712563	0.086016	0.590593	10245.388672
6843.713634	0.086082	0.590593	10337.582031
6843.714568	0.085928	0.590593	10417.838867
6844.710874	1.065729	0.616056	484.906586
6844.711751	1.514282	0.616056	1812.932129
6844.712743	1.504179	0.616056	3305.077148
6844.713785	1.460413	0.616056	4826.827148
6844.714690	1.423575	0.616056	6115.163086
6844.715551	1.388093	0.616056	7310.311523
6844.716648	1.348601	0.616056	8789.726562
6844.717650	0.713774	0.616056	9504.928711
6844.718528	0.092725	0.616056	9586.340820
6844.719532	0.085950	0.616056	9672.634766
6844.720582	0.086074	0.616056	9763.012695
6844.721456	0.085968	0.616056	9838.148437
6844.722321	0.085891	0.616056	9912.444336
6844.723401	0.086019	0.616056	10005.344727
6844.724365	0.085884	0.616056	10088.136719
6844.725236	0.085840	0.616056	10162.903320
6844.726267	0.085997	0.616056	10251.566406
6844.727315	0.085942	0.616056	10341.633789
6845.754806	1.022131	0.590903	432.361542
6845.755747	1.511503	0.590903	1854.685669
6845.756808	1.500062	0.590903	3446.251953
6845.757757	1.460211	0.590903	4831.992187
6845.758625	1.424509	0.590903	6068.466309
6845.759678	1.383398	0.590903	7525.184570
6845.760687	1.345730	0.590903	8883.026367
6845.761578	0.773676	0.590903	9572.371094
6845.762574	0.095226	0.590903	9667.215820
6845.763623	0.086063	0.590903	9757.496094
6845.764534	0.086023	0.590903	9835.863281
6845.765390	0.085935	0.590903	9909.423828
6845.766466	0.086107	0.590903	10002.075195
6845.767461	0.085975	0.590903	10087.621094
6845.768331	0.085964	0.590903	10162.410156
6845.769308	0.086016	0.590903	10246.447266
6845.770359	0.086001	0.590903	10336.833984
6845.771265	0.085968	0.590903	10414.720703
6846.768103	1.049934	0.619045	490.319183
6846.769000	1.515341	0.619045	1849.579712
6846.769951	1.504281	0.619045	3280.150879
6846.770921	1.463675	0.619045	4699.916016
6846.771838	1.425926	0.619045	6007.490723
6846.772722	1.391030	0.619045	7237.161133
6846.773743	1.353153	0.619045	8618.730469
6846.774658	0.994112	0.619045	9528.343750
6846.775536	0.116605	0.619045	9630.722656
6846.776457	0.085876	0.619045	9709.814453
6846.777447	0.085895	0.619045	9794.850586
6846.778367	0.085994	0.619045	9873.964844
6846.779229	0.086041	0.619045	9948.132812
6846.780314	0.085961	0.619045	10041.400391
6846.781201	0.085920	0.619045	10117.611328
6846.782121	0.085898	0.619045	10196.637695
6846.782979	0.085986	0.619045	10270.414062
6846.783997	0.085906	0.619045	10357.866211
6847.811020	1.044708	0.593324	457.582214
6847.811881	1.512052	0.593324	1759.458984
6847.812973	1.501238	0.593324	3398.810547
6847.813973	1.459083	0.593324	4857.893555
6847.814855	1.423370	0.593324	6113.306152
6847.815866	1.383882	0.593324	7512.410645
6847.816932	1.344855	0.593324	8946.025391
6847.817809	0.722128	0.593324	9579.331055
6847.818691	0.093311	0.593324	9661.630859
6847.819790	0.086023	0.593324	9756.169922
6847.820763	0.086001	0.593324	9839.848633
6847.821634	0.085906	0.593324	9914.672852
6847.822654	0.085990	0.593324	10002.382812
6847.823682	0.086030	0.593324	10090.822266
6847.824570	0.086019	0.593324	10167.207031
6847.825489	0.086052	0.593324	10246.289062
6847.826553	0.086067	0.593324	10337.864258
6847.827502	0.085917	0.593324	10419.399414
6848.825305	1.057540	0.625313	482.238373
6848.826391	1.519896	0.625313	2132.845703
6848.827346	1.496733	0.625313	3562.226074
6848.828221	1.459783	0.625313	4839.536133
6848.829258	1.417614	0.625313	6309.601562
6848.830297	1.377316	0.625313	7740.632812
6848.831192	1.343859	0.625313	8943.386719
6848.832138	0.670653	0.625313	9577.824219
6848.833204	0.087579	0.625313	9671.183594
6848.834144	0.085920	0.625313	9751.949219
6848.835008	0.085909	0.625313	9826.174805
6848.836066	0.086071	0.625313	9917.237305
6848.837070	0.085862	0.625313	10003.442383
6848.837960	0.085964	0.625313	10079.950195
6848.838927	0.085924	0.625313	10163.039062
6848.839980	0.085909	0.625313	10253.501953
6848.840886	0.085880	0.625313	10331.309570
6848.841743	0.086060	0.625313	10405.062500
6849.868214	1.025174	0.589059	430.573303
6849.869259	1.517538	0.589059	2016.400391
6849.870290	1.496433	0.589059	3559.222900
6849.871185	1.458830	0.589059	4864.875977
6849.872162	1.419895	0.589059	6252.113281
6849.873234	1.377810	0.589059	7729.125488
6849.874145	1.343536	0.589059	8953.086914
6849.875028	0.698456	0.589059	9569.823242
6849.876113	0.088206	0.589059	9665.526367
6849.877090	0.085942	0.589059	9749.492187
6849.877974	0.085983	0.589059	9825.500977
6849.878948	0.086096	0.589059	9909.358398
6849.880001	0.085994	0.589059	9999.910156
6849.880902	0.085887	0.589059	10077.294922
6849.881767	0.085909	0.589059	10151.606445
6849.882871	0.086030	0.589059	10246.583984
6849.883834	0.085935	0.589059	10329.339844
6849.884696	0.085931	0.589059	10403.413086
6850.883148	1.141556	0.628274	643.837830
6850.884043	1.519706	0.628274	2003.974609
6850.884962	1.501245	0.628274	3383.618652
6850.885843	1.462921	0.628274	4672.452148
6850.886894	1.421660	0.628274	6166.617187
6850.887790	1.386427	0.628274	7408.855957
6850.888671	1.353373	0.628274	8601.177734
6850.889667	0.897294	0.628274	9494.881836
6850.890613	0.098610	0.628274	9588.166992
6850.891536	0.085884	0.628274	9667.437500
6850.892398	0.085961	0.628274	9741.535156
6850.893429	0.085939	0.628274	9830.137695
6850.894303	0.085917	0.628274	9905.228516
6850.895173	0.085975	0.628274	9980.027344
6850.896096	0.086023	0.628274	10059.426758
6850.897083	0.085986	0.628274	10144.294922
6850.898005	0.085920	0.628274	10223.513672
6850.898875	0.085939	0.628274	10298.280273
6851.925554	1.148178	0.590279	610.830444
6851.926602	1.521248	0.590279	2205.097656
6851.927495	1.497462	0.590279	3542.331299
6851.928417	1.458677	0.590279	4887.231445
6851.929492	1.415175	0.590279	6408.543945
6851.930446	1.378114	0.590279	7723.264648
6851.931314	1.345554	0.590279	8891.205078
6851.932374	0.568993	0.590279	9494.337891
6851.933394	0.086825	0.590279	9582.899414
6851.934280	0.085961	0.590279	9659.060547
6851.935249	0.086001	0.590279	9742.395508
6851.936295	0.085953	0.590279	9832.302734
6851.937207	0.085968	0.590279	9910.705078
6851.938066	0.085913	0.590279	9984.504883
6851.939135	0.086085	0.590279	10076.530273
6851.940138	0.085931	0.590279	10162.719727
6851.941008	0.086045	0.590279	10237.579102
6851.941977	0.086049	0.590279	10320.959961
6852.940230	1.031147	0.625382	447.518005
6852.941104	1.512565	0.625382	1769.499512
6852.942130	1.503193	0.625382	3311.775879
6852.943175	1.459947	0.625382	4837.420898
6852.944076	1.422704	0.625382	6119.277344
6852.945008	1.386145	0.625382	7411.164551
6852.946059	1.346898	0.625382	8826.754883
6852.947012	0.740962	0.625382	9532.891602
6852.947873	0.094391	0.625382	9614.162109
6852.948922	0.086038	0.625382	9704.416016
6852.949941	0.085935	0.625382	9791.983398
6852.950822	0.085807	0.625382	9867.579102
6852.951787	0.085935	0.625382	9950.506836
6852.952819	0.085986	0.625382	10039.245117
6852.953735	0.085891	0.625382	10117.920898
6852.954596	0.086030	0.625382	10191.993164
6852.955645	0.085979	0.625382	10282.185547
6852.956663	0.085968	0.625382	10369.701172
6853.981624	1.026244	0.599580	432.048645
6853.982695	1.518241	0.599580	2058.084717
6853.983622	1.500077	0.599580	3448.656006
6853.984490	1.463383	0.599580	4718.872070
6853.985454	1.424447	0.599580	6092.039062
6853.986479	1.383695	0.599580	7510.326172
6853.987377	1.350121	0.599580	8722.734375
6853.988247	0.952808	0.599580	9551.676758
6853.989315	0.096603	0.599580	9654.848633
6853.990256	0.085862	0.599580	9735.644531
6853.991134	0.085884	0.599580	9811.050781
6853.992077	0.086144	0.599580	9892.284180
6853.993119	0.085880	0.599580	9981.771484
6853.994004	0.085997	0.599580	10057.878906
6853.994866	0.085935	0.599580	10131.955078
6853.995909	0.086005	0.599580	10221.658203
6853.996855	0.085968	0.599580	10302.984375
6853.997725	0.085880	0.599580	10377.700195
6854.998599	1.154949	0.620906	647.926208
6854.999648	1.521398	0.620906	2243.872314
6855.000531	1.496763	0.620906	3565.513672
6855.001464	1.457633	0.620906	4925.485352
6855.002531	1.414464	0.620906	6434.718750
6855.003467	1.378242	0.620906	7724.753418
6855.004329	1.345400	0.620906	8884.488281
6855.005372	0.605237	0.620906	9515.750000
6855.006392	0.087349	0.620906	9604.845703
6855.007261	0.085887	0.620906	9679.481445
6855.008207	0.085990	0.620906	9760.828125
6855.009262	0.085975	0.620906	9851.532227
6855.010192	0.086019	0.620906	9931.530273
6855.011057	0.085902	0.620906	10005.835937
6855.012119	0.085946	0.620906	10097.110352
6855.013126	0.085935	0.620906	10183.646484
6855.014015	0.085979	0.620906	10260.082031
6855.014987	0.085990	0.620906	10343.664062
6856.037816	1.043994	0.600217	440.565491
6856.038913	1.519171	0.600217	2107.096191
6856.039889	1.496781	0.600217	3567.954590
6856.040767	1.459805	0.600217	4849.663086
6856.041799	1.417610	0.600217	6312.636719
6856.042851	1.377253	0.600217	7761.507324
6856.043752	1.343335	0.600217	8971.851562
6856.044693	0.661571	0.600217	9594.389648
6856.045753	0.087422	0.600217	9687.056641
6856.046702	0.085939	0.600217	9768.612305
6856.047568	0.085968	0.600217	9843.060547
6856.048618	0.086074	0.600217	9933.438477
6856.049640	0.085961	0.600217	10021.290039
6856.050530	0.085800	0.600217	10097.651367
6856.051485	0.086027	0.600217	10179.806641
6856.052528	0.085994	0.600217	10269.498047
6856.053440	0.085902	0.600217	10347.840820
6856.054301	0.085994	0.600217	10421.881836
6857.055770	1.105847	0.618224	555.135254
6857.056688	1.518732	0.618224	1949.330933
6857.057566	1.504124	0.618224	3269.951416
6857.058548	1.463752	0.618224	4707.356445
6857.059567	1.421858	0.618224	6156.229492
6857.060459	1.386749	0.618224	7393.209961
6857.061325	1.353215	0.618224	8565.094727
6857.062398	0.837422	0.618224	9463.648437
6857.063331	0.095490	0.618224	9552.740234
6857.064203	0.085803	0.618224	9627.560547
6857.065167	0.085975	0.618224	9710.440430
6857.066180	0.085917	0.618224	9797.473633
6857.067060	0.085913	0.618224	9873.077148
6857.067927	0.085858	0.618224	9947.516602
6857.068986	0.086030	0.618224	10038.623047
6857.069923	0.085778	0.618224	10118.997070
6857.070786	0.085972	0.618224	10193.190430
6857.071705	0.086052	0.618224	10272.272461
6858.094528	1.031349	0.603750	441.417358
6858.095393	1.511627	0.603750	1748.974854
6858.096348	1.506423	0.603750	3187.609131
6858.097282	1.467828	0.603750	4558.560547
6858.098171	1.430988	0.603750	5830.708496
6858.099061	1.395260	0.603750	7072.489746
6858.100039	1.358599	0.603750	8401.199219
6858.100967	1.162397	0.603750	9479.904297
6858.101836	0.169900	0.603750	9627.546875
6858.102852	0.085873	0.603750	9714.793945
6858.103742	0.085854	0.603750	9791.204102
6858.104662	0.085858	0.603750	9870.193359
6858.105521	0.085990	0.603750	9944.058594
6858.106484	0.085939	0.603750	10026.817383
6858.107415	0.086005	0.603750	10106.887695
6858.108295	0.085946	0.603750	10182.520508
6858.109311	0.085990	0.603750	10269.886719
6858.110206	0.085931	0.603750	10346.794922
6859.112460	1.087504	0.616439	548.101868
6859.113338	1.516985	0.616439	1880.014648
6859.114218	1.504006	0.616439	3203.540283
6859.115319	1.459841	0.616439	4810.825684
6859.116285	1.421063	0.616439	6183.572754
6859.117156	1.386636	0.616439	7391.332520
6859.118175	1.348048	0.616439	8764.993164
6859.119229	0.664504	0.616439	9465.380859
6859.120124	0.090106	0.616439	9546.026367
6859.121057	0.085953	0.616439	9626.220703
6859.122118	0.086038	0.616439	9717.506836
6859.123060	0.086038	0.616439	9798.554687
6859.123927	0.086023	0.616439	9873.136719
6859.124990	0.086038	0.616439	9964.594727
6859.125999	0.085924	0.616439	10051.291992
6859.126887	0.085917	0.616439	10127.585937
6859.127845	0.086089	0.616439	10210.058594
6859.128877	0.086056	0.616439	10298.868164
6860.151816	1.099559	0.592454	549.779663
6860.152778	1.520332	0.592454	2012.338989
6860.153658	1.502897	0.592454	3334.888184
6860.154691	1.460149	0.592454	4843.222168
6860.155735	1.417921	0.592454	6323.531738
6860.156623	1.382618	0.592454	7551.296875
6860.157519	1.348491	0.592454	8759.544922
6860.158592	0.701085	0.592454	9511.809570
6860.159538	0.089817	0.592454	9596.776367
6860.160395	0.085858	0.592454	9670.356445
6860.161416	0.086089	0.592454	9758.252930
6860.162449	0.085950	0.592454	9847.039062
6860.163323	0.085906	0.592454	9922.121094
6860.164208	0.085957	0.592454	9998.193359
6860.165298	0.086038	0.592454	10091.974609
6860.166237	0.085917	0.592454	10172.650391
6860.167107	0.085994	0.592454	10247.464844
6860.168120	0.086056	0.592454	10334.639648
6861.169610	1.041940	0.614626	455.327667
6861.170485	1.512905	0.614626	1779.119751
6861.171458	1.505479	0.614626	3243.950195
6861.172481	1.462595	0.614626	4740.185059
6861.173370	1.426179	0.614626	6008.058594
6861.174234	1.390986	0.614626	7209.870605
6861.175310	1.351597	0.614626	8664.188477
6861.176250	0.924353	0.614626	9533.080078
6861.177120	0.108497	0.614626	9627.472656
6861.178094	0.085909	0.614626	9711.148437
6861.179116	0.085920	0.614626	9798.958984
6861.179986	0.085909	0.614626	9873.700195
6861.180850	0.085946	0.614626	9947.958008
6861.181888	0.086071	0.614626	10037.298828
6861.182824	0.085884	0.614626	10117.686523
6861.183697	0.085865	0.614626	10192.647461
6861.184623	0.086056	0.614626	10272.334961
6861.185687	0.085972	0.614626	10363.808594
6862.209013	1.085947	0.593522	516.910828
6862.209899	1.515996	0.593522	1860.083252
6862.210878	1.503270	0.593522	3331.784668
6862.211934	1.458948	0.593522	4872.433594
6862.212851	1.421572	0.593522	6176.015625
6862.213714	1.386123	0.593522	7372.239746
6862.214773	1.347433	0.593522	8799.170898
6862.215783	0.683448	0.593522	9489.454102
6862.216669	0.091256	0.593522	9570.306641
6862.217640	0.085961	0.593522	9653.774414
6862.218692	0.085924	0.593522	9744.166992
6862.219601	0.085851	0.593522	9822.205078
6862.220464	0.085946	0.593522	9896.376953
6862.221557	0.085994	0.593522	9990.368164
6862.222543	0.085887	0.593522	10075.052734
6862.223429	0.085964	0.593522	10151.216797
6862.224410	0.086030	0.593522	10235.612305
6862.225467	0.086005	0.593522	10326.519531
6863.227413	1.081296	0.615545	557.948975
6863.228478	1.520288	0.615545	2177.055664
6863.229403	1.496100	0.615545	3560.947998
6863.230277	1.458285	0.615545	4835.489258
6863.231357	1.415442	0.615545	6364.166504
6863.232360	1.376250	0.615545	7744.545410
6863.233254	1.343412	0.615545	8945.555664
6863.234256	0.579628	0.615545	9526.342773
6863.235312	0.086755	0.615545	9617.956055
6863.236216	0.085990	0.615545	9695.691406
6863.237079	0.086045	0.615545	9769.948242
6863.238167	0.086082	0.615545	9863.604492
6863.239130	0.085946	0.615545	9946.370117
6863.240008	0.086001	0.615545	10021.878906
6863.241022	0.086085	0.615545	10109.168945
6863.242073	0.085961	0.615545	10199.513672
6863.242951	0.086060	0.615545	10275.074219
6863.243829	0.085997	0.615545	10350.580078
6864.263615	1.044580	0.609438	446.035706
6864.264707	1.518600	0.609438	2104.346680
6864.265702	1.495792	0.609438	3592.660156
6864.266581	1.458904	0.609438	4875.036621
6864.267588	1.418459	0.609438	6303.425293
6864.268642	1.377869	0.609438	7755.698730
6864.269532	1.343969	0.609438	8951.831055
6864.270426	0.695292	0.609438	9573.421875
6864.271520	0.087990	0.609438	9669.682617
6864.272462	0.085913	0.609438	9750.612305
6864.273329	0.085785	0.609438	9824.988281
6864.274345	0.086067	0.609438	9912.432617
6864.275374	0.085924	0.609438	10000.848633
6864.276260	0.085979	0.609438	10077.026367
6864.277193	0.086049	0.609438	10157.309570
6864.278257	0.085968	0.609438	10248.779297
6864.279192	0.085876	0.609438	10329.074219
6864.280062	0.085822	0.609438	10403.739258
6865.284023	1.021428	0.617132	431.042725
6865.285033	1.515656	0.617132	1961.854736
6865.285962	1.501553	0.617132	3356.797363
6865.286888	1.463163	0.617132	4711.686035
6865.287755	1.426410	0.617132	5948.383301
6865.288821	1.385991	0.617132	7425.850098
6865.289717	1.352117	0.617132	8637.346680
6865.290596	1.021970	0.617132	9535.658203
6865.291610	0.118004	0.617132	9655.314453
6865.292536	0.085876	0.617132	9734.835937
6865.293461	0.085840	0.617132	9814.238281
6865.294319	0.085950	0.617132	9887.983398
6865.295364	0.086023	0.617132	9977.876953
6865.296236	0.085950	0.617132	10052.825195
6865.297114	0.085844	0.617132	10128.195312
6865.298068	0.086074	0.617132	10210.310547
6865.299029	0.085917	0.617132	10292.876953
6865.299934	0.085939	0.617132	10370.651367
6866.320916	1.105789	0.609228	556.211670
6866.321932	1.520702	0.609228	2101.244629
6866.322824	1.499755	0.609228	3439.025879
6866.323796	1.459512	0.609228	4857.671387
6866.324844	1.416779	0.609228	6342.455078
6866.325779	1.380121	0.609228	7632.868164
6866.326646	1.346792	0.609228	8800.537109
6866.327729	0.607734	0.609228	9458.713867
6866.328720	0.087334	0.609228	9545.261719
6866.329605	0.085767	0.609228	9621.165039
6866.330576	0.085935	0.609228	9704.608398
6866.331625	0.085983	0.609228	9794.804687
6866.332527	0.085920	0.609228	9872.304687
6866.333388	0.086045	0.609228	9946.389648
6866.334477	0.086060	0.609228	10040.108398
6866.335459	0.085975	0.609228	10124.536133
6866.336339	0.085942	0.609228	10200.165039
6866.337339	0.085979	0.609228	10286.143555
6867.339703	1.025273	0.618095	432.665405
6867.340734	1.517000	0.618095	1996.692017
6867.341775	1.496437	0.618095	3554.482910
6867.342671	1.458776	0.618095	4861.545898
6867.343627	1.420426	0.618095	6219.473145
6867.344707	1.378136	0.618095	7707.860352
6867.345641	1.343196	0.618095	8962.405273
6867.346515	0.705831	0.618095	9579.301758
6867.347582	0.088440	0.618095	9673.666992
6867.348584	0.085986	0.618095	9759.825195
6867.349473	0.085986	0.618095	9836.266602
6867.350435	0.085968	0.618095	9918.967773
6867.351482	0.085990	0.618095	10008.999023
6867.352401	0.085957	0.618095	10087.993164
6867.353261	0.086001	0.618095	10161.954102
6867.354339	0.086060	0.618095	10254.726562
6867.355329	0.085920	0.618095	10339.788086
6867.356208	0.085975	0.618095	10415.360352
6868.379092	1.052952	0.606799	456.981049
6868.379969	1.512979	0.606799	1783.863281
6868.380830	1.509488	0.606799	3083.532715
6868.381864	1.466418	0.606799	4599.809570
6868.382792	1.428691	0.606799	5925.635254
6868.383666	1.393762	0.606799	7143.783203
6868.384646	1.356995	0.606799	8473.637695
6868.385576	1.070259	0.606799	9468.978516
6868.386509	0.129412	0.606799	9589.719727
6868.387374	0.085792	0.606799	9663.929687
6868.388410	0.085964	0.606799	9752.988281
6868.389299	0.085851	0.606799	9829.309570
6868.390175	0.085913	0.606799	9904.569336
6868.391127	0.085994	0.606799	9986.435547
6868.392083	0.085920	0.606799	10068.575195
6868.393000	0.085931	0.606799	10147.374023
6868.393861	0.085942	0.606799	10221.370117
6868.394875	0.085961	0.606799	10308.534180
6869.397057	1.154806	0.623589	645.536499
6869.398143	1.520944	0.623589	2297.281250
6869.399036	1.494683	0.623589	3632.032715
6869.399957	1.455912	0.623589	4972.927734
6869.401059	1.411688	0.623589	6528.608398
6869.402013	1.374694	0.623589	7840.065918
6869.402876	1.342214	0.623589	8998.396484
6869.403928	0.490906	0.623589	9514.829102
6869.404933	0.086429	0.623589	9601.690430
6869.405814	0.085957	0.623589	9677.418945
6869.406765	0.086049	0.623589	9759.250977
6869.407808	0.086082	0.623589	9849.034180
6869.408738	0.085931	0.623589	9928.950195
6869.409601	0.085844	0.623589	10003.033203
6869.410652	0.086041	0.623589	10093.462891
6869.411670	0.085924	0.623589	10180.933594
6869.412543	0.085931	0.623589	10255.952148
6869.413502	0.085917	0.623589	10338.346680
6870.437411	1.119430	0.609240	577.625854
6870.438415	1.520761	0.609240	2104.469482
6870.439293	1.500011	0.609240	3421.479248
6870.440282	1.458695	0.609240	4864.128906
6870.441354	1.415929	0.609240	6382.004883
6870.442245	1.380370	0.609240	7611.914551
6870.443142	1.346191	0.609240	8819.448242
6870.444239	0.573065	0.609240	9448.100586
6870.445196	0.087374	0.609240	9531.717773
6870.446059	0.085906	0.609240	9605.854492
6870.447076	0.086019	0.609240	9693.335937
6870.448109	0.085862	0.609240	9782.031250
6870.449000	0.085972	0.609240	9858.631836
6870.449922	0.086063	0.609240	9937.982422
6870.450977	0.085942	0.609240	10028.651367
6870.451923	0.085873	0.609240	10109.886719
6870.452783	0.085950	0.609240	10183.803711
6870.453823	0.086067	0.609240	10273.313477
6871.453125	1.029899	0.632016	436.677032
6871.454066	1.511715	0.632016	1859.200928
6871.455029	1.502926	0.632016	3306.518555
6871.455960	1.464137	0.632016	4669.629883
6871.456836	1.428483	0.632016	5920.980469
6871.457870	1.388108	0.632016	7356.284180
6871.458782	1.353289	0.632016	8590.483398
6871.459663	1.054534	0.632016	9519.527344
6871.460537	0.133063	0.632016	9635.824219
6871.461579	0.085833	0.632016	9725.261719
6871.462461	0.085887	0.632016	9801.014648
6871.463331	0.085906	0.632016	9875.752930
6871.464327	0.085979	0.632016	9961.387695
6871.465248	0.085895	0.632016	10040.497070
6871.466165	0.085825	0.632016	10119.199219
6871.467024	0.085957	0.632016	10193.036133
6871.468050	0.085917	0.632016	10281.186523
6871.468947	0.085887	0.632016	10358.227539
6872.495056	1.043170	0.611419	454.822174
6872.495925	1.512480	0.611419	1769.167603
6872.496984	1.502080	0.611419	3359.870361
6872.498016	1.458907	0.611419	4865.462891
6872.498899	1.422660	0.611419	6121.671387
6872.499861	1.384757	0.611419	7453.807617
6872.500922	1.345580	0.611419	8881.467773
6872.501846	0.717946	0.611419	9544.849609
6872.502712	0.093186	0.611419	9625.548828
6872.503779	0.085975	0.611419	9717.284180
6872.504778	0.085847	0.611419	9803.045898
6872.505673	0.085898	0.611419	9879.924805
6872.506656	0.086012	0.611419	9964.474609
6872.507704	0.086034	0.611419	10054.637695
6872.508607	0.085961	0.611419	10132.259766
6872.509467	0.086019	0.611419	10206.236328
6872.510551	0.086023	0.611419	10299.485352
6872.511534	0.085924	0.611419	10383.948242
6873.509308	1.039471	0.628318	442.814819
6873.510396	1.518893	0.628318	2095.370117
6873.511401	1.495305	0.628318	3598.151855
6873.512301	1.457820	0.628318	4910.189453
6873.513302	1.417515	0.628318	6329.121582
6873.514362	1.376675	0.628318	7788.396973
6873.515253	1.342771	0.628318	8984.805664
6873.516145	0.668038	0.628318	9580.696289
6873.517238	0.087495	0.628318	9676.328125
6873.518195	0.085968	0.628318	9758.599609
6873.519060	0.086093	0.628318	9833.069336
6873.520083	0.086005	0.628318	9921.051758
6873.521105	0.086001	0.628318	10008.944336
6873.521991	0.085997	0.628318	10085.137695
6873.522905	0.086067	0.628318	10163.802734
6873.523965	0.086052	0.628318	10255.018555
6873.524900	0.085902	0.628318	10335.336914
6873.525760	0.085942	0.628318	10409.247070
6874.553364	1.079480	0.609281	554.852722
6874.554399	1.520779	0.609281	2128.858643
6874.555302	1.498451	0.609281	3481.959961
6874.556175	1.460944	0.609281	4757.363770
6874.557236	1.418434	0.609281	6262.322266
6874.558191	1.381267	0.609281	7581.432617
6874.559075	1.348162	0.609281	8773.207031
6874.560022	0.793187	0.609281	9524.355469
6874.561064	0.089912	0.609281	9618.043945
6874.561950	0.085968	0.609281	9694.211914
6874.562809	0.085953	0.609281	9768.045898
6874.563865	0.086089	0.609281	9858.956055
6874.564803	0.085975	0.609281	9939.600586
6874.565671	0.085887	0.609281	10014.151367
6874.566586	0.086049	0.609281	10092.885742
6874.567659	0.085986	0.609281	10185.149414
6874.568532	0.085928	0.609281	10260.164062
6874.569397	0.085942	0.609281	10334.503906
6875.566615	1.107396	0.611726	551.483337
6875.567646	1.520782	0.611726	2119.410156
6875.568535	1.499557	0.611726	3452.516113
6875.569484	1.460259	0.611726	4838.301758
6875.570526	1.417474	0.611726	6315.310059
6875.571462	1.380872	0.611726	7607.805664
6875.572328	1.347986	0.611726	8775.161133
6875.573387	0.671576	0.611726	9486.360352
6875.574407	0.088077	0.611726	9576.199219
6875.575279	0.086008	0.611726	9651.198242
6875.576241	0.086085	0.611726	9734.012695
6875.577307	0.086045	0.611726	9825.736328
6875.578203	0.086023	0.611726	9902.812500
6875.579074	0.085931	0.611726	9977.659180
6875.580133	0.086012	0.611726	10068.746094
6875.581123	0.085942	0.611726	10153.829102
6875.582016	0.085950	0.611726	10230.582031
6875.582990	0.086104	0.611726	10314.447266
6876.611531	1.049868	0.595959	460.892151
6876.612395	1.512023	0.595959	1767.279785
6876.613511	1.499546	0.595959	3440.772949
6876.614487	1.458973	0.595959	4864.730957
6876.615353	1.423502	0.595959	6097.483887
6876.616439	1.381505	0.595959	7597.798340
6876.617479	1.342753	0.595959	8994.260742
6876.618365	0.665299	0.595959	9583.715820
6876.619289	0.091593	0.595959	9668.347656
6876.620341	0.086041	0.595959	9758.863281
6876.621279	0.085986	0.595959	9839.518555
6876.622135	0.085968	0.595959	9913.107422
6876.623163	0.086082	0.595959	10001.599609
6876.624200	0.086049	0.595959	10090.832031
6876.625085	0.085920	0.595959	10166.872070
6876.626030	0.085994	0.595959	10248.135742
6876.627079	0.086078	0.595959	10338.431641
6876.628009	0.085931	0.595959	10418.347656
6877.622215	1.035747	0.601232	451.585724
6877.623081	1.512026	0.601232	1761.000488
6877.624120	1.503182	0.601232	3322.806885
6877.625010	1.465653	0.601232	4627.238281
6877.625885	1.429896	0.601232	5878.397461
6877.626858	1.391971	0.601232	7232.785645
6877.627827	1.355215	0.601232	8545.988281
6877.628695	1.109872	0.601232	9509.357422
6877.629629	0.148455	0.601232	9648.013672
6877.630686	0.085964	0.601232	9738.877930
6877.631577	0.085972	0.601232	9815.478516
6877.632442	0.085983	0.601232	9889.853516
6877.633458	0.086041	0.601232	9977.271484
6877.634413	0.086027	0.601232	10059.426758
6877.635289	0.086125	0.601232	10134.873047
6877.636175	0.086027	0.601232	10211.092773
6877.637259	0.086078	0.601232	10304.401367
6877.638138	0.086016	0.601232	10380.008789
6878.668219	1.027343	0.593026	433.538574
6878.669164	1.511686	0.593026	1862.081543
6878.670231	1.499103	0.593026	3461.624023
6878.671177	1.459420	0.593026	4842.235352
6878.672046	1.423330	0.593026	6079.109375
6878.673112	1.382311	0.593026	7552.652832
6878.674112	1.344858	0.593026	8897.511719
6878.675003	0.753922	0.593026	9569.255859
6878.675995	0.093896	0.593026	9662.401367
6878.677029	0.086063	0.593026	9751.390625
6878.677937	0.086115	0.593026	9829.583008
6878.678793	0.086100	0.593026	9903.284180
6878.679875	0.086191	0.593026	9996.542969
6878.680876	0.085957	0.593026	10082.585937
6878.681746	0.086089	0.593026	10157.483398
6878.682733	0.086144	0.593026	10242.507812
6878.683779	0.086115	0.593026	10332.583984
6878.684673	0.085994	0.593026	10409.461914
6879.679558	1.144647	0.581751	630.700562
6879.680596	1.521105	0.581751	2209.607178
6879.681476	1.497257	0.581751	3527.193359
6879.682439	1.456996	0.581751	4930.280273
6879.683525	1.413699	0.581751	6465.557129
6879.684440	1.377371	0.581751	7725.851074
6879.685312	1.344214	0.581751	8898.005859
6879.686380	0.536140	0.581751	9470.603516
6879.687380	0.086561	0.581751	9557.165039
6879.688270	0.085979	0.581751	9633.686523
6879.689225	0.086034	0.581751	9715.848633
6879.690274	0.086060	0.581751	9806.125000
6879.691185	0.086023	0.581751	9884.492187
6879.692047	0.085913	0.581751	9958.548828
6879.693149	0.086107	0.581751	10053.438477
6879.694141	0.085909	0.581751	10138.660156
6879.695029	0.085847	0.581751	10214.892578
6879.696019	0.086012	0.581751	10300.043945
6880.725942	1.024025	0.574061	430.090393
6880.726984	1.518212	0.574061	2012.066895
6880.727887	1.502223	0.574061	3368.574219
6880.728758	1.465389	0.574061	4644.928223
6880.729798	1.423246	0.574061	6125.104004
6880.730783	1.384596	0.574061	7488.931152
6880.731661	1.351450	0.574061	8675.503906
6880.732551	0.912448	0.574061	9487.582031
6880.733664	0.095046	0.574061	9593.369141
6880.734549	0.085939	0.574061	9669.424805
6880.735408	0.085994	0.574061	9743.292969
6880.736445	0.086184	0.574061	9832.666016
6880.737397	0.086012	0.574061	9914.549805
6880.738273	0.085939	0.574061	9989.832031
6880.739134	0.086063	0.574061	10063.932617
6880.740252	0.086012	0.574061	10160.093750
6880.741164	0.085986	0.574061	10238.513672
6880.742027	0.086078	0.574061	10312.798828
6881.735726	1.121008	0.586319	607.586487
6881.736786	1.520629	0.586319	2219.452881
6881.737699	1.495836	0.586319	3585.151367
6881.738568	1.457303	0.586319	4851.547852
6881.739681	1.414127	0.586319	6425.471680
6881.740646	1.376862	0.586319	7754.143066
6881.741518	1.344463	0.586319	8926.514648
6881.742596	0.505232	0.586319	9471.154297
6881.743635	0.086521	0.586319	9561.049805
6881.744523	0.085939	0.586319	9637.363281
6881.745454	0.086074	0.586319	9717.498047
6881.746519	0.086060	0.586319	9809.151367
6881.747461	0.085950	0.586319	9890.116211
6881.748322	0.085939	0.586319	9964.109375
6881.749363	0.086038	0.586319	10053.674805
6881.750370	0.085920	0.586319	10140.196289
6881.751253	0.086034	0.586319	10216.164062
6881.752219	0.086089	0.586319	10299.326172
6882.782280	1.128362	0.560034	638.652771
6882.783327	1.520991	0.560034	2231.130615
6882.784235	1.495781	0.560034	3589.300049
6882.785096	1.457974	0.560034	4844.615234
6882.786187	1.415369	0.560034	6388.782227
6882.787186	1.376184	0.560034	7763.589844
6882.788078	1.343280	0.560034	8961.795898
6882.789102	0.553488	0.560034	9528.567383
6882.790130	0.086748	0.560034	9617.744141
6882.791012	0.085975	0.560034	9693.574219
6882.791900	0.086023	0.560034	9769.962891
6882.792997	0.085975	0.560034	9864.278320
6882.793952	0.085939	0.560034	9946.349609
6882.794816	0.085957	0.560034	10020.616211
6882.795840	0.086052	0.560034	10108.733398
6882.796876	0.085972	0.560034	10197.799805
6882.797764	0.086067	0.560034	10274.227539
6882.798697	0.086104	0.560034	10354.562500
6883.791834	1.051146	0.590863	481.424988
6883.792928	1.519435	0.590863	2143.686768
6883.793882	1.496309	0.590863	3571.165039
6883.794749	1.459409	0.590863	4836.472656
6883.795791	1.417474	0.590863	6313.480957
6883.796828	1.377583	0.590863	7742.034668
6883.797713	1.344089	0.590863	8931.553711
6883.798643	0.685759	0.590863	9569.309570
6883.799502	0.091835	0.590863	9648.195312
6883.800475	0.085902	0.590863	9731.778320
6883.801397	0.085854	0.590863	9810.936523
6883.802278	0.085928	0.590863	9886.638672
6883.803139	0.085964	0.590863	9960.654297
6883.804138	0.085920	0.590863	10046.489258
6883.805063	0.085950	0.590863	10125.993164
6883.805924	0.086027	0.590863	10200.062500
6883.806958	0.085957	0.590863	10288.942383
6883.807830	0.085876	0.590863	10363.826172
6884.839946	1.098622	0.557702	551.508179
6884.840826	1.517487	0.557702	1886.896362
6884.841725	1.504460	0.557702	3239.406250
6884.842809	1.460057	0.557702	4822.108398
6884.843764	1.421331	0.557702	6179.479004
6884.844627	1.387083	0.557702	7376.531250
6884.845669	1.348359	0.557702	8781.521484
6884.846715	0.670605	0.557702	9482.974609
6884.847593	0.091139	0.557702	9562.994141
6884.848535	0.086078	0.557702	9644.079102
6884.849603	0.086034	0.557702	9735.962891
6884.850521	0.085997	0.557702	9814.908203
6884.851392	0.086001	0.557702	9889.815430
6884.852431	0.086144	0.557702	9979.318359
6884.853451	0.085920	0.557702	10066.957031
6884.854338	0.085920	0.557702	10143.167969
6884.855294	0.086027	0.557702	10225.409180
6884.856340	0.085953	0.557702	10315.316406
6885.849634	1.114592	0.592893	571.785767
6885.850541	1.518882	0.592893	1949.411621
6885.851420	1.504504	0.592893	3271.871094
6885.852428	1.463093	0.592893	4746.668945
6885.853435	1.421232	0.592893	6177.849121
6885.854325	1.386306	0.592893	7411.661621
6885.855190	1.352721	0.592893	8581.765625
6885.856294	0.794615	0.592893	9459.021484
6885.857189	0.094647	0.592893	9543.730469
6885.858064	0.085990	0.592893	9618.971680
6885.859048	0.086184	0.592893	9703.776367
6885.860050	0.085983	0.592893	9789.930664
6885.860936	0.085917	0.592893	9866.052734
6885.861799	0.085906	0.592893	9940.189453
6885.862894	0.086016	0.592893	10034.376953
6885.863824	0.085891	0.592893	10114.255859
6885.864699	0.085935	0.592893	10189.449219
6885.865660	0.086045	0.592893	10272.138672
6886.896142	1.095659	0.558806	557.690491
6886.897052	1.518651	0.558806	1939.663086
6886.897917	1.504545	0.558806	3241.094238
6886.898977	1.460610	0.558806	4789.340820
6886.899990	1.419426	0.558806	6227.219727
6886.900884	1.384651	0.558806	7465.097656
6886.901859	1.348374	0.558806	8779.762695
6886.902925	0.652112	0.558806	9474.914062
6886.903832	0.089242	0.558806	9555.856445
6886.904695	0.086005	0.558806	9630.078125
6886.905807	0.086107	0.558806	9725.829102
6886.906788	0.085968	0.558806	9810.164062
6886.907652	0.085972	0.558806	9884.443359
6886.908758	0.086019	0.558806	9979.581055
6886.909790	0.086012	0.558806	10068.345703
6886.910681	0.085913	0.558806	10144.894531
6886.911609	0.085979	0.558806	10224.682617
6886.912666	0.085986	0.558806	10315.570312
6887.906314	1.094883	0.598638	539.777222
6887.907198	1.517355	0.598638	1881.118774
6887.908115	1.503988	0.598638	3260.275879
6887.909188	1.459666	0.598638	4826.497070
6887.910138	1.421353	0.598638	6176.782227
6887.911003	1.386859	0.598638	7376.415039
6887.912050	1.347865	0.598638	8787.629883
6887.913079	0.678230	0.598638	9485.528320
6887.913957	0.091381	0.598638	9565.760742
6887.914903	0.086008	0.598638	9647.125000
6887.915970	0.085950	0.598638	9738.833008
6887.916897	0.085961	0.598638	9818.518555
6887.917755	0.085953	0.598638	9892.266602
6887.918773	0.086027	0.598638	9979.841797
6887.919796	0.085924	0.598638	10067.742187
6887.920685	0.085979	0.598638	10144.177734
6887.921646	0.086019	0.598638	10226.841797
6887.922693	0.086038	0.598638	10316.922852
6888.952860	1.100790	0.549150	555.898865
6888.953733	1.517065	0.549150	1880.296875
6888.954611	1.505896	0.549150	3202.473633
6888.955527	1.467246	0.549150	4546.471191
6888.956547	1.425967	0.549150	6000.957031
6888.957443	1.390276	0.549150	7246.644043
6888.958325	1.357269	0.549150	8443.755859
6888.959320	1.022974	0.549150	9461.614258
6888.960248	0.117620	0.549150	9570.765625
6888.961169	0.085862	0.549150	9649.844727
6888.962034	0.086019	0.549150	9724.250977
6888.963067	0.086008	0.549150	9813.097656
6888.963950	0.085902	0.549150	9888.949219
6888.964814	0.085986	0.549150	9963.241211
6888.965792	0.086107	0.549150	10047.454102
6888.966736	0.085953	0.549150	10128.593750
6888.967642	0.085946	0.549150	10206.460937
6888.968517	0.085961	0.549150	10281.676758
6889.962972	1.067183	0.603427	487.702423
6889.963850	1.514663	0.603427	1817.576538
6889.964821	1.504431	0.603427	3278.379150
6889.965863	1.460918	0.603427	4800.655762
6889.966782	1.423396	0.603427	6108.756836
6889.967651	1.388016	0.603427	7314.942871
6889.968736	1.348575	0.603427	8778.147461
6889.969739	0.724277	0.603427	9504.597656
6889.970615	0.093318	0.603427	9586.343750
6889.971616	0.086027	0.603427	9672.456055
6889.972657	0.085917	0.603427	9761.895508
6889.973557	0.085865	0.603427	9839.174805
6889.974415	0.085935	0.603427	9912.907227
6889.975490	0.085968	0.603427	10005.323242
6889.976454	0.085898	0.603427	10088.128906
6889.977333	0.085990	0.603427	10163.713867
6889.978321	0.086133	0.603427	10248.813477
6889.979377	0.086067	0.603427	10339.700195
6891.009521	1.081787	0.545166	510.603516
6891.010395	1.515868	0.545166	1835.472046
6891.011364	1.503428	0.545166	3292.293457
6891.012425	1.459325	0.545166	4840.637207
6891.013349	1.421660	0.545166	6154.250977
6891.014223	1.386207	0.545166	7365.795898
6891.015302	1.347100	0.545166	8819.316406
6891.016298	0.677399	0.545166	9494.005859
6891.017194	0.090791	0.545166	9575.354492
6891.018176	0.086129	0.545166	9659.933594
6891.019233	0.086027	0.545166	9750.863281
6891.020133	0.085986	0.545166	9828.250977
6891.020992	0.085935	0.545166	9902.069336
6891.022101	0.086122	0.545166	9997.578125
6891.023068	0.085957	0.545166	10080.698242
6891.023937	0.085854	0.545166	10155.305664
6891.024987	0.086060	0.545166	10245.667969
6891.026016	0.086008	0.545166	10334.170898
6892.020159	1.023541	0.604084	436.028564
6892.021109	1.511261	0.604084	1871.726562
6892.022190	1.498685	0.604084	3491.805420
6892.023114	1.459259	0.604084	4840.160645
6892.023987	1.423330	0.604084	6082.727539
6892.025025	1.382626	0.604084	7517.893066
6892.026059	1.344254	0.604084	8907.851562
6892.026966	0.709768	0.604084	9551.611328
6892.027874	0.091483	0.604084	9634.677734
6892.028748	0.086027	0.604084	9709.865234
6892.029741	0.086023	0.604084	9795.286133
6892.030669	0.085931	0.604084	9875.030273
6892.031530	0.086012	0.604084	9949.086914
6892.032623	0.085983	0.604084	10043.066406
6892.033518	0.085953	0.604084	10119.995117
6892.034441	0.086019	0.604084	10199.390625
6892.035305	0.085957	0.604084	10273.657227
6892.036275	0.086085	0.604084	10357.160156
6893.066193	1.042053	0.548513	459.545471
6893.067056	1.513092	0.548513	1765.343994
6893.068076	1.503530	0.548513	3298.944824
6893.069139	1.460046	0.548513	4850.974121
6893.070017	1.423147	0.548513	6100.497070
6893.070949	1.386372	0.548513	7392.595703
6893.072018	1.346448	0.548513	8831.948242
6893.072965	0.738325	0.548513	9531.142578
6893.073829	0.093827	0.548513	9612.208984
6893.074859	0.086030	0.548513	9700.820312
6893.075888	0.085997	0.548513	9789.311523
6893.076779	0.085920	0.548513	9865.866211
6893.077701	0.086071	0.548513	9945.223633
6893.078768	0.085983	0.548513	10036.966797
6893.079699	0.085961	0.548513	10116.996094
6893.080557	0.085975	0.548513	10190.762695
6893.081611	0.086122	0.548513	10281.535156
6893.082616	0.085964	0.548513	10367.929687
6894.076877	1.044862	0.592620	459.739288
6894.077745	1.512865	0.592620	1772.906006
6894.078750	1.503915	0.592620	3284.340332
6894.079668	1.464694	0.592620	4628.928711
6894.080581	1.427776	0.592620	5932.488281
6894.081463	1.392187	0.592620	7160.397461
6894.082509	1.353468	0.592620	8576.125000
6894.083413	1.037410	0.592620	9513.943359
6894.084292	0.126486	0.592620	9625.124023
6894.085265	0.085759	0.592620	9708.567383
6894.086223	0.085902	0.592620	9790.861328
6894.087099	0.085950	0.592620	9866.153320
6894.088022	0.085920	0.592620	9945.458008
6894.089054	0.085844	0.592620	10034.048828
6894.089929	0.085902	0.592620	10109.212891
6894.090792	0.085734	0.592620	10183.201172
6894.091712	0.085957	0.592620	10262.281250
6894.092709	0.085869	0.592620	10347.892578
6895.123910	1.058437	0.537540	459.361847
6895.125005	1.519047	0.537540	2122.717773
6895.125972	1.496693	0.537540	3570.020020
6895.126835	1.460175	0.537540	4830.150391
6895.127914	1.416837	0.537540	6358.917969
6895.128948	1.376678	0.537540	7782.403320
6895.129834	1.343361	0.537540	8972.621094
6895.130767	0.665519	0.537540	9593.549805
6895.131854	0.087389	0.537540	9688.541992
6895.132790	0.085851	0.537540	9768.898437
6895.133650	0.085840	0.537540	9842.720703
6895.134678	0.085975	0.537540	9931.103516
6895.135703	0.085854	0.537540	10019.104492
6895.136595	0.085792	0.537540	10095.630859
6895.137555	0.085887	0.537540	10178.083008
6895.138605	0.085939	0.537540	10268.318359
6895.139525	0.085789	0.537540	10347.244141
6895.140392	0.085858	0.537540	10421.683594
6896.133564	1.030082	0.593735	438.814880
6896.134615	1.517527	0.593735	2033.735596
6896.135627	1.496924	0.593735	3548.622559
6896.136517	1.459358	0.593735	4847.451172
6896.137487	1.420466	0.593735	6225.303711
6896.138539	1.378780	0.593735	7675.780762
6896.139461	1.344631	0.593735	8915.531250
6896.140329	0.760349	0.593735	9575.514648
6896.141388	0.089564	0.593735	9670.363281
6896.142386	0.085858	0.593735	9756.049805
6896.143272	0.085873	0.593735	9832.132812
6896.144248	0.086082	0.593735	9916.148437
6896.145289	0.085983	0.593735	10005.656250
6896.146203	0.085898	0.593735	10084.166992
6896.147065	0.085950	0.593735	10158.255859
6896.148163	0.085964	0.593735	10252.644531
6896.149151	0.085880	0.593735	10337.494141
6896.150046	0.085906	0.593735	10414.379883
6898.833334	1.029825	0.108202	433.556519
6898.834386	1.519083	0.108202	2031.632080
6898.835393	1.497946	0.108202	3540.063232
6898.836289	1.460248	0.108202	4848.445312
6898.837262	1.421265	0.108202	6231.335937
6898.838326	1.379388	0.108202	7699.005371
6898.839251	1.344950	0.108202	8943.083984
6898.840127	0.729954	0.108202	9582.523437
6898.841206	0.088740	0.108202	9678.274414
6898.842195	0.085928	0.108202	9763.256836
6898.843095	0.085935	0.108202	9840.598633
6898.844110	0.086034	0.108202	9927.922852
6898.845144	0.086016	0.108202	10016.863281
6898.846029	0.085898	0.108202	10092.883789
6898.846886	0.086001	0.108202	10166.586914
6898.847992	0.086155	0.108202	10261.874023
6898.848951	0.085920	0.108202	10344.271484
6898.849810	0.085939	0.108202	10418.092773
6899.609588	1.063352	0.221023	508.282318
6899.610461	1.515271	0.221023	1831.114014
6899.611428	1.504226	0.221023	3285.700684
6899.612367	1.464543	0.221023	4660.907227
6899.613284	1.427523	0.221023	5969.946289
6899.614162	1.392301	0.221023	7192.386719
6899.615208	1.353464	0.221023	8608.110352
6899.616122	1.001594	0.221023	9523.567383
6899.617044	0.113514	0.221023	9628.227539
6899.617907	0.085719	0.221023	9702.203125
6899.618905	0.085953	0.221023	9787.984375
6899.619825	0.085873	0.221023	9866.987305
6899.620685	0.085887	0.221023	9940.850586
6899.621763	0.085917	0.221023	10033.468750
6899.622633	0.085906	0.221023	10108.207031
6899.623506	0.085961	0.221023	10183.250977
6899.624389	0.085997	0.221023	10259.186523
6899.625421	0.085895	0.221023	10347.830078
6901.158851	1.030968	0.384371	445.378143
6901.159719	1.511865	0.384371	1757.677246
6901.160777	1.502369	0.384371	3347.184082
6901.161787	1.460361	0.384371	4822.148926
6901.162677	1.423967	0.384371	6089.479980
6901.163628	1.387236	0.384371	7408.741699
6901.164679	1.347444	0.384371	8824.905273
6901.165612	0.775668	0.384371	9548.603516
6901.166471	0.096390	0.384371	9631.403320
6901.167535	0.086034	0.384371	9722.943359
6901.168545	0.085994	0.384371	9809.796875
6901.169416	0.085928	0.384371	9884.639648
6901.170409	0.086100	0.384371	9970.136719
6901.171466	0.085909	0.384371	10060.943359
6901.172353	0.085990	0.384371	10137.216797
6901.173217	0.085975	0.384371	10211.499023
6901.174292	0.086078	0.384371	10304.033203
6901.175280	0.086005	0.384371	10389.005859
6902.097988	1.147511	0.316949	641.458679
6902.098924	1.520383	0.316949	2064.537354
6902.099855	1.499813	0.316949	3460.863281
6902.100726	1.462343	0.316949	4734.563477
6902.101764	1.421206	0.316949	6209.775391
6902.102643	1.386493	0.316949	7428.502441
6902.103520	1.353728	0.316949	8615.721680
6902.104522	0.892310	0.316949	9509.815430
6902.105451	0.101191	0.316949	9603.822266
6902.106354	0.085895	0.316949	9681.384766
6902.107234	0.086012	0.316949	9757.075195
6902.108268	0.086012	0.316949	9846.011719
6902.109162	0.085957	0.316949	9922.857422
6902.110032	0.085968	0.316949	9997.649414
6902.110959	0.085928	0.316949	10077.304687
6902.111948	0.085887	0.316949	10162.247070
6902.112819	0.085862	0.316949	10237.033203
6902.113674	0.085906	0.316949	10310.482422
6903.158254	1.079432	0.335174	511.650940
6903.159135	1.515374	0.335174	1846.695068
6903.160103	1.504083	0.335174	3302.647705
6903.161163	1.459501	0.335174	4849.718262
6903.162095	1.421733	0.335174	6174.773926
6903.162962	1.386903	0.335174	7377.218750
6903.164035	1.347502	0.335174	8823.088867
6903.165034	0.684745	0.335174	9507.149414
6903.165922	0.091271	0.335174	9588.198242
6903.166910	0.086082	0.335174	9673.247070
6903.167960	0.086071	0.335174	9763.621094
6903.168862	0.085950	0.335174	9841.147461
6903.169720	0.085975	0.335174	9914.914062
6903.170796	0.086023	0.335174	10007.474609
6903.171786	0.085942	0.335174	10092.557617
6903.172661	0.086034	0.335174	10167.836914
6903.173656	0.086056	0.335174	10253.462891
6903.174704	0.086034	0.335174	10343.625977
6903.822780	1.028317	0.327000	438.062866
6903.823830	1.517043	0.327000	2030.958496
6903.824846	1.497026	0.327000	3551.937256
6903.825733	1.459666	0.327000	4846.660645
6903.826711	1.420792	0.327000	6236.195312
6903.827780	1.378704	0.327000	7710.029297
6903.828704	1.344086	0.327000	8951.964844
6903.829573	0.725596	0.327000	9582.507812
6903.830645	0.089286	0.327000	9678.222656
6903.831643	0.085983	0.327000	9764.033203
6903.832528	0.085920	0.327000	9840.073242
6903.833516	0.086107	0.327000	9925.147461
6903.834570	0.085990	0.327000	10015.781250
6903.835458	0.085939	0.327000	10092.094727
6903.836327	0.086005	0.327000	10166.833008
6903.837419	0.086071	0.327000	10260.822266
6903.838396	0.085942	0.327000	10344.788086
6903.839287	0.085939	0.327000	10421.359375
6905.210920	1.120605	0.282241	580.473633
6905.211843	1.519358	0.282241	1982.840942
6905.212719	1.504050	0.282241	3300.388916
6905.213696	1.463789	0.282241	4730.510742
6905.214726	1.421430	0.282241	6194.583008
6905.215620	1.386152	0.282241	7433.803223
6905.216487	1.352805	0.282241	8606.685547
6905.217567	0.794125	0.282241	9464.339844
6905.218510	0.093054	0.282241	9552.089844
6905.219385	0.085876	0.282241	9627.231445
6905.220348	0.086027	0.282241	9710.075195
6905.221355	0.085851	0.282241	9796.527344
6905.222238	0.086052	0.282241	9872.511719
6905.223099	0.085924	0.282241	9946.492187
6905.224161	0.086082	0.282241	10037.911133
6905.225101	0.085891	0.282241	10118.648437
6905.225965	0.086023	0.282241	10192.972656
6905.226881	0.086023	0.282241	10271.769531
6906.185162	1.046700	0.222763	454.268005
6906.186035	1.512089	0.222763	1774.321289
6906.187114	1.500861	0.222763	3393.750000
6906.188111	1.459178	0.222763	4848.550781
6906.189015	1.422814	0.222763	6134.774414
6906.190004	1.384153	0.222763	7503.701660
6906.191061	1.345111	0.222763	8925.484375
6906.191969	0.704403	0.222763	9565.082031
6906.192831	0.093051	0.222763	9645.291992
6906.193926	0.086027	0.222763	9739.491211
6906.194889	0.085928	0.222763	9822.239258
6906.195757	0.086001	0.222763	9896.887695
6906.196811	0.086129	0.222763	9987.667969
6906.197845	0.085968	0.222763	10076.558594
6906.198736	0.086005	0.222763	10153.188477
6906.199657	0.086067	0.222763	10232.456055
6906.200725	0.086038	0.222763	10324.343750
6906.201660	0.086052	0.222763	10404.802734
6907.240011	1.158036	0.275063	655.448303
6907.241054	1.521072	0.275063	2241.926270
6907.241951	1.496616	0.275063	3584.391113
6907.242890	1.457113	0.275063	4952.620117
6907.243970	1.413508	0.275063	6479.208984
6907.244915	1.376840	0.275063	7780.322266
6907.245789	1.343851	0.275063	8954.848633
6907.246873	0.489316	0.275063	9485.267578
6907.247889	0.086353	0.275063	9573.001953
6907.248780	0.085873	0.275063	9649.514648
6907.249749	0.086085	0.275063	9732.931641
6907.250794	0.086060	0.275063	9822.864258
6907.251719	0.085931	0.275063	9902.350586
6907.252580	0.085931	0.275063	9976.337891
6907.253664	0.086045	0.275063	10069.610352
6907.254652	0.085968	0.275063	10154.546875
6907.255536	0.085950	0.275063	10230.526367
6907.256521	0.085972	0.275063	10315.208008
6908.248507	1.020707	0.278096	429.717560
6908.249434	1.510616	0.278096	1830.058960
6908.250496	1.500370	0.278096	3423.451660
6908.251446	1.460760	0.278096	4811.173828
6908.252322	1.424832	0.278096	6059.326172
6908.253382	1.383340	0.278096	7525.666016
6908.254400	1.345367	0.278096	8895.250000
6908.255299	0.745258	0.278096	9565.236328
6908.256256	0.094567	0.278096	9655.736328
6908.257292	0.085986	0.278096	9744.818359
6908.258217	0.085913	0.278096	9824.288086
6908.259076	0.086012	0.278096	9898.171875
6908.260138	0.086008	0.278096	9989.512695
6908.261152	0.086034	0.278096	10076.750977
6908.262028	0.085924	0.278096	10152.020508
6908.263023	0.086001	0.278096	10237.591797
6908.264065	0.086027	0.278096	10327.231445
6908.264971	0.085950	0.278096	10405.101562
6909.304303	1.081219	0.276304	509.254364
6909.305182	1.515099	0.276304	1841.026367
6909.306046	1.507577	0.276304	3143.572754
6909.307120	1.463763	0.276304	4715.654297
6909.308062	1.425381	0.276304	6058.363281
6909.308942	1.390481	0.276304	7281.986328
6909.309902	1.354911	0.276304	8582.701172
6909.310955	0.886820	0.276304	9516.522461
6909.311831	0.104498	0.276304	9608.062500
6909.312696	0.085931	0.276304	9682.393555
6909.313737	0.086151	0.276304	9772.077148
6909.314680	0.085876	0.276304	9853.058594
6909.315554	0.085924	0.276304	9928.156250
6909.316485	0.086030	0.276304	10008.250000
6909.317541	0.085990	0.276304	10099.055664
6909.318433	0.085869	0.276304	10175.651367
6909.319296	0.086019	0.276304	10249.885742
6909.320344	0.086067	0.276304	10340.083984
6910.311360	1.031737	0.295136	441.583435
6910.312228	1.511096	0.295136	1753.215088
6910.313287	1.502413	0.295136	3344.270752
6910.314295	1.460131	0.295136	4816.082520
6910.315188	1.424000	0.295136	6087.714844
6910.316172	1.385881	0.295136	7451.421875
6910.317240	1.345756	0.295136	8888.688477
6910.318154	0.732455	0.295136	9558.152344
6910.319015	0.094237	0.295136	9639.290039
6910.320111	0.086093	0.295136	9733.647461
6910.321082	0.086027	0.295136	9817.179687
6910.321960	0.086034	0.295136	9892.717773
6910.322970	0.086202	0.295136	9979.782227
6910.324021	0.086067	0.295136	10070.238281
6910.324909	0.086063	0.295136	10146.662109
6910.325790	0.086133	0.295136	10222.544922
6910.326857	0.086125	0.295136	10314.440430
6910.327813	0.085931	0.295136	10396.590820
