time (s)	coil I (A)	last det (V)	int current (uC)
5815.824851	1.049081	0.295607	447.957458
5815.825910	1.521002	0.295607	2058.698730
5815.826950	1.500322	0.295607	3619.033691
5815.827842	1.462068	0.295607	4923.198242
5815.828801	1.423220	0.295607	6288.066406
5815.829871	0.507642	0.295607	6831.243164
5815.830787	0.087034	0.295607	6910.965820
5815.831644	0.085924	0.295607	6984.602539
5815.832683	0.086049	0.295607	7074.006836
5815.833700	0.085935	0.295607	7161.402832
5815.834590	0.085953	0.295607	7237.901367
5815.835551	0.085975	0.295607	7320.523437
5815.836601	0.085928	0.295607	7410.747559
5815.837536	0.086023	0.295607	7491.179199
5815.838402	0.085909	0.295607	7565.576660
5815.839481	0.086023	0.295607	7658.395508
5816.830014	1.139667	0.314641	613.140686
5816.830921	1.523606	0.314641	1995.051270
5816.831797	1.508401	0.314641	3316.410645
5816.832683	1.469531	0.314641	4618.415527
5816.833732	1.427706	0.314641	6116.079102
5816.834632	0.868638	0.314641	6897.853027
5816.835488	0.101488	0.314641	6984.726562
5816.836581	0.085829	0.314641	7078.537598
5816.837482	0.085862	0.314641	7155.898926
5816.838349	0.085858	0.314641	7230.337891
5816.839334	0.086060	0.314641	7315.106445
5816.840335	0.085854	0.314641	7401.046875
5816.841229	0.085869	0.314641	7477.813965
5816.842090	0.085957	0.314641	7551.822754
5816.843163	0.085942	0.314641	7644.039062
5816.844090	0.085917	0.314641	7723.684082
5817.882562	1.032927	0.309723	441.059937
5817.883537	1.518592	0.309723	1921.687622
5817.884461	1.508434	0.309723	3315.480469
5817.885343	1.471011	0.309723	4612.912109
5817.886328	1.430969	0.309723	6022.416992
5817.887266	0.894646	0.309723	6861.594727
5817.888184	0.099305	0.309723	6952.757324
5817.889062	0.085840	0.309723	7028.124512
5817.890097	0.085869	0.309723	7116.999023
5817.890986	0.085836	0.309723	7193.307617
5817.891864	0.085829	0.309723	7268.665527
5817.892820	0.085953	0.309723	7350.836914
5817.893797	0.085847	0.309723	7434.709473
5817.894715	0.085869	0.309723	7513.537109
5817.895579	0.085986	0.309723	7587.829102
5817.896620	0.085917	0.309723	7677.268555
5818.884038	1.033883	0.318609	443.535858
5818.884901	1.514927	0.318609	1750.917603
5818.886026	1.504925	0.318609	3443.958740
5818.886982	1.464379	0.318609	4843.904785
5818.887849	1.428508	0.318609	6082.421387
5818.888897	0.681284	0.318609	6796.407227
5818.889944	0.087957	0.318609	6888.497559
5818.890829	0.085891	0.318609	6964.511230
5818.891760	0.085979	0.318609	7044.557617
5818.892820	0.085972	0.318609	7135.687500
5818.893762	0.085869	0.318609	7216.576172
5818.894629	0.085935	0.318609	7291.082031
5818.895669	0.085994	0.318609	7380.515625
5818.896681	0.085942	0.318609	7467.489258
5818.897571	0.085931	0.318609	7543.968262
5818.898524	0.086096	0.318609	7626.018066
5819.934644	1.031949	0.334058	431.354858
5819.935743	1.523002	0.334058	2105.133789
5819.936740	1.500059	0.334058	3600.692383
5819.937639	1.462247	0.334058	4915.252930
5819.938625	1.422363	0.334058	6317.703125
5819.939687	0.475832	0.334058	6823.037109
5819.940581	0.086975	0.334058	6900.792969
5819.941444	0.085942	0.334058	6974.961426
5819.942549	0.086012	0.334058	7070.004883
5819.943513	0.085876	0.334058	7152.790039
5819.944380	0.085884	0.334058	7227.251465
5819.945443	0.085997	0.334058	7318.666504
5819.946483	0.085997	0.334058	7408.103516
5819.947375	0.085895	0.334058	7484.721680
5819.948304	0.085946	0.334058	7564.565430
5819.949373	0.085953	0.334058	7656.449707
5820.942354	1.102225	0.325280	562.134888
5820.943342	1.524445	0.325280	2068.286133
5820.944247	1.505123	0.325280	3430.422852
5820.945248	1.463042	0.325280	4894.927734
5820.946312	1.420265	0.325280	6406.089355
5820.947208	0.566316	0.325280	6913.508301
5820.948096	0.089180	0.325280	6992.699707
5820.949195	0.085972	0.325280	7087.182617
5820.950164	0.085858	0.325280	7170.379395
5820.951024	0.086019	0.325280	7244.355957
5820.952053	0.085968	0.325280	7332.816895
5820.953077	0.085935	0.325280	7420.814453
5820.953957	0.085957	0.325280	7496.456543
5820.954876	0.086005	0.325280	7575.494629
5820.955921	0.085961	0.325280	7665.323730
5820.956860	0.085869	0.325280	7745.955078
5821.989390	1.097593	0.344245	554.284302
5821.990290	1.521976	0.344245	1924.062988
5821.991155	1.508888	0.344245	3229.250977
5821.992257	1.463650	0.344245	4842.193359
5821.993264	1.422499	0.344245	6274.649414
5821.994166	0.688594	0.344245	6895.760742
5821.995148	0.090597	0.344245	6984.727051
5821.996201	0.085898	0.344245	7075.178223
5821.997092	0.085895	0.344245	7151.710449
5821.997969	0.085917	0.344245	7227.059570
5821.999056	0.086049	0.344245	7320.594238
5822.000005	0.085884	0.344245	7402.098145
5822.000862	0.085917	0.344245	7475.729004
5822.001888	0.085935	0.344245	7563.898437
5822.002935	0.085909	0.344245	7653.845703
5822.003816	0.085898	0.344245	7729.522461
5823.001668	1.144915	0.323000	643.441956
5823.002718	1.524924	0.323000	2244.612549
5823.003621	1.500436	0.323000	3599.505859
5823.004490	1.461625	0.323000	4869.657715
5823.005602	1.418320	0.323000	6446.830078
5823.006569	0.436512	0.323000	6868.937500
5823.007430	0.087389	0.323000	6944.179199
5823.008492	0.085898	0.323000	7035.403320
5823.009521	0.085898	0.323000	7123.792969
5823.010400	0.085818	0.323000	7199.227051
5823.011324	0.085917	0.323000	7278.614258
5823.012389	0.085990	0.323000	7370.193359
5823.013324	0.085928	0.323000	7450.535645
5823.014188	0.085887	0.323000	7524.742187
5823.015209	0.086001	0.323000	7612.549316
5824.046072	1.081296	0.340205	524.428772
5824.046949	1.519900	0.340205	1857.381104
5824.047875	1.509049	0.340205	3254.760498
5824.048951	1.463998	0.340205	4830.022461
5824.049904	1.425414	0.340205	6188.441895
5824.050775	0.822231	0.340205	6904.605469
5824.051822	0.091011	0.340205	6999.893555
5824.052841	0.085891	0.340205	7087.416504
5824.053734	0.085942	0.340205	7164.163086
5824.054686	0.086016	0.340205	7246.049805
5824.055736	0.085935	0.340205	7336.281738
5824.056671	0.085876	0.340205	7416.576172
5824.057531	0.085895	0.340205	7490.445801
5824.058590	0.085946	0.340205	7581.462891
5824.059587	0.085884	0.340205	7667.088867
5824.060461	0.085869	0.340205	7742.138672
5825.060797	1.024347	0.318416	434.323120
5825.061770	1.515714	0.318416	1909.113037
5825.062799	1.504087	0.318416	3456.818359
5825.063683	1.466627	0.318416	4753.316895
5825.064547	1.430017	0.318416	5988.851562
5825.065626	0.736366	0.318416	6783.390625
5825.066547	0.090948	0.318416	6867.154297
5825.067425	0.085833	0.318416	6942.515137
5825.068388	0.086045	0.318416	7025.376465
5825.069412	0.085887	0.318416	7113.325195
5825.070303	0.085887	0.318416	7189.851074
5825.071164	0.085939	0.318416	7263.844238
5825.072228	0.085942	0.318416	7355.287109
5825.073161	0.085909	0.318416	7435.440430
5825.074031	0.085836	0.318416	7510.117676
5825.074985	0.085902	0.318416	7592.068359
5826.103248	1.062114	0.335746	472.640839
5826.104169	1.519805	0.335746	1872.380859
5826.105037	1.510126	0.335746	3183.169922
5826.106079	1.468129	0.335746	4712.959961
5826.106960	1.431929	0.335746	5974.489258
5826.107839	1.041324	0.335746	6889.813477
5826.108836	0.117067	0.335746	7006.528809
5826.109765	0.085796	0.335746	7086.233398
5826.110669	0.086001	0.335746	7163.978516
5826.111545	0.085950	0.335746	7239.270508
5826.112570	0.085946	0.335746	7327.365234
5826.113471	0.085887	0.335746	7404.750000
5826.114344	0.085895	0.335746	7479.736328
5826.115281	0.085917	0.335746	7560.240234
5826.116259	0.085950	0.335746	7644.298828
5826.117181	0.085869	0.335746	7723.470215
5827.119583	1.060074	0.313280	475.973419
5827.120451	1.516981	0.313280	1792.713135
5827.121514	1.505848	0.313280	3393.429932
5827.122527	1.463192	0.313280	4875.643555
5827.123409	1.426739	0.313280	6134.027832
5827.124358	0.776158	0.313280	6870.602051
5827.125429	0.089385	0.313280	6966.333008
5827.126340	0.085792	0.313280	7044.489746
5827.127207	0.085975	0.313280	7119.030273
5827.128269	0.085961	0.313280	7210.320312
5827.129282	0.085858	0.313280	7297.294434
5827.130165	0.085906	0.313280	7373.149414
5827.131141	0.086012	0.313280	7457.097168
5827.132191	0.085972	0.313280	7547.367187
5827.133107	0.085898	0.313280	7626.050293
5827.133969	0.085876	0.313280	7700.075684
5828.162538	1.084512	0.332809	502.128937
5828.163416	1.518472	0.332809	1835.347046
5828.164420	1.507262	0.332809	3348.638184
5828.165478	1.463027	0.332809	4896.520996
5828.166376	1.425571	0.332809	6176.684082
5828.167243	0.814021	0.332809	6882.440430
5828.168319	0.090487	0.332809	6979.804687
5828.169291	0.085800	0.332809	7063.201660
5828.170176	0.085957	0.332809	7139.273437
5828.171163	0.085990	0.332809	7224.145508
5828.172210	0.085986	0.332809	7314.173340
5828.173104	0.085869	0.332809	7390.940430
5828.173968	0.085994	0.332809	7465.238770
5828.175072	0.086005	0.332809	7560.187988
5828.176041	0.085884	0.332809	7643.409180
5828.176905	0.085895	0.332809	7717.622070
5829.176269	1.050923	0.309235	461.355133
5829.177130	1.515699	0.309235	1766.372314
5829.178211	1.505750	0.309235	3394.087646
5829.179208	1.463412	0.309235	4853.109375
5829.180095	1.427131	0.309235	6118.974609
5829.181130	0.690864	0.309235	6834.019043
5829.182162	0.088235	0.309235	6925.077637
5829.183038	0.085873	0.309235	7000.302246
5829.183904	0.085924	0.309235	7074.712402
5829.185005	0.086023	0.309235	7169.423828
5829.185951	0.085847	0.309235	7250.635254
5829.186826	0.085895	0.309235	7325.792969
5829.187843	0.085891	0.309235	7413.144043
5829.188882	0.085884	0.309235	7502.377441
5829.189773	0.085833	0.309235	7578.854004
5829.190671	0.086030	0.309235	7656.109375
5830.219705	1.024537	0.328039	433.379303
5830.220640	1.514700	0.328039	1849.623535
5830.221699	1.504039	0.328039	3442.401123
5830.222642	1.464353	0.328039	4823.286133
5830.223517	1.428157	0.328039	6072.923340
5830.224577	0.684543	0.328039	6798.539551
5830.225584	0.088037	0.328039	6887.192871
5830.226477	0.085785	0.328039	6963.798828
5830.227441	0.085950	0.328039	7046.654297
5830.228502	0.086045	0.328039	7137.947754
5830.229431	0.085887	0.328039	7217.737305
5830.230290	0.085891	0.328039	7291.517578
5830.231363	0.086115	0.328039	7383.918457
5830.232352	0.085880	0.328039	7468.854004
5830.233233	0.085931	0.328039	7544.559570
5830.234231	0.086030	0.328039	7630.417969
5831.232969	1.041057	0.316478	447.654572
5831.233926	1.515443	0.316478	1897.933594
5831.234993	1.502897	0.316478	3501.524414
5831.235916	1.463668	0.316478	4852.490234
5831.236783	1.427373	0.316478	6090.022461
5831.237857	0.658055	0.316478	6796.773926
5831.238858	0.087788	0.316478	6884.649902
5831.239743	0.085906	0.316478	6960.676270
5831.240718	0.086111	0.316478	7044.634277
5831.241762	0.085946	0.316478	7134.361816
5831.242672	0.085957	0.316478	7212.582520
5831.243529	0.085990	0.316478	7286.275879
5831.244583	0.086071	0.316478	7376.994141
5831.245582	0.085957	0.316478	7462.865234
5831.246470	0.085862	0.316478	7539.110352
5831.247447	0.086023	0.316478	7623.154785
5832.279994	1.030137	0.340753	434.717682
5832.281072	1.522123	0.340753	2075.566162
5832.282085	1.500055	0.340753	3595.121826
5832.282981	1.462028	0.340753	4905.098633
5832.283962	1.422748	0.340753	6300.814453
5832.285022	0.484340	0.340753	6814.214355
5832.285932	0.086946	0.340753	6893.334961
5832.286792	0.085898	0.340753	6967.207520
5832.287858	0.086041	0.340753	7058.927734
5832.288855	0.085935	0.340753	7144.604980
5832.289731	0.085920	0.340753	7219.871094
5832.290747	0.086078	0.340753	7307.326172
5832.291789	0.086052	0.340753	7396.992676
5832.292677	0.085917	0.340753	7473.286621
5832.293534	0.085968	0.340753	7546.961426
5832.294645	0.086060	0.340753	7642.573730
5833.289662	1.031319	0.329913	439.342102
5833.290528	1.514429	0.329913	1750.837402
5833.291646	1.504775	0.329913	3433.176270
5833.292556	1.465682	0.329913	4766.947266
5833.293434	1.430054	0.329913	6022.534180
5833.294461	0.777184	0.329913	6820.702148
5833.295448	0.090062	0.329913	6909.593750
5833.296334	0.085876	0.329913	6985.680176
5833.297321	0.085968	0.329913	7070.530762
5833.298363	0.085975	0.329913	7160.117187
5833.299254	0.085935	0.329913	7236.685547
5833.300113	0.085957	0.329913	7310.522461
5833.301197	0.086027	0.329913	7403.775391
5833.302164	0.085917	0.329913	7486.856934
5833.303018	0.085942	0.329913	7560.251953
5833.304087	0.086045	0.329913	7652.233887
5834.336699	1.028339	0.355319	438.072266
5834.337711	1.518677	0.355319	1974.973145
5834.338682	1.503490	0.355319	3434.861816
5834.339610	1.465071	0.355319	4794.447266
5834.340480	1.427941	0.355319	6036.755859
5834.341589	0.665145	0.355319	6774.401855
5834.342491	0.089648	0.355319	6855.264648
5834.343353	0.085862	0.355319	6929.277344
5834.344436	0.086012	0.355319	7022.428223
5834.345407	0.085862	0.355319	7105.799805
5834.346276	0.085865	0.355319	7180.416992
5834.347140	0.085913	0.355319	7254.645996
5834.348256	0.085968	0.355319	7350.586426
5834.349145	0.085935	0.355319	7426.982910
5834.350002	0.085942	0.355319	7500.635742
5834.351061	0.086129	0.355319	7591.846680
5835.345352	1.035894	0.348741	451.649597
5835.346228	1.516099	0.348741	1779.751953
5835.347097	1.513191	0.348741	3094.714844
5835.348145	1.470374	0.348741	4635.666016
5835.349038	1.432178	0.348741	5914.600586
5835.349981	1.002023	0.348741	6859.507812
5835.350838	0.116338	0.348741	6959.209473
5835.351870	0.085844	0.348741	7047.799805
5835.352750	0.085975	0.348741	7123.458008
5835.353614	0.085917	0.348741	7197.689941
5835.354602	0.086096	0.348741	7282.752930
5835.355525	0.085939	0.348741	7362.074219
5835.356437	0.086001	0.348741	7440.507324
5835.357313	0.086030	0.348741	7515.869629
5835.358347	0.085986	0.348741	7604.779297
5835.359241	0.085942	0.348741	7681.611816
5836.394516	1.105737	0.359827	565.031738
5836.395432	1.522251	0.359827	1959.413574
5836.396300	1.507932	0.359827	3268.298828
5836.397362	1.463701	0.359827	4822.749512
5836.398365	1.422656	0.359827	6249.673828
5836.399265	0.721783	0.359827	6899.278809
5836.400256	0.092076	0.359827	6990.526367
5836.401310	0.085844	0.359827	7081.005371
5836.402219	0.085800	0.359827	7158.997070
5836.403085	0.085946	0.359827	7233.426270
5836.404183	0.085972	0.359827	7327.823242
5836.405147	0.085898	0.359827	7410.629395
5836.406021	0.085851	0.359827	7485.663086
5836.407030	0.086052	0.359827	7572.489746
5836.408087	0.085935	0.359827	7663.323242
5836.408991	0.085898	0.359827	7740.975586
5837.406752	1.096824	0.366075	576.929321
5837.407826	1.524210	0.366075	2213.931152
5837.408742	1.499974	0.366075	3587.907715
5837.409606	1.462141	0.366075	4851.197266
5837.410696	1.418782	0.366075	6397.669434
5837.411695	0.415250	0.366075	6812.504395
5837.412587	0.086913	0.366075	6890.030762
5837.413594	0.086074	0.366075	6976.707520
5837.414645	0.085928	0.366075	7067.017578
5837.415525	0.085873	0.366075	7142.585449
5837.416387	0.085909	0.366075	7216.639160
5837.417486	0.085935	0.366075	7311.082031
5837.418444	0.085847	0.366075	7393.323730
5837.419303	0.085844	0.366075	7467.063477
5837.420361	0.086027	0.366075	7558.079590
5837.421396	0.085873	0.366075	7646.958008
5838.445511	1.040771	0.377394	449.613281
5838.446449	1.515037	0.377394	1870.717651
5838.447520	1.503102	0.377394	3480.539551
5838.448459	1.463306	0.377394	4854.583496
5838.449323	1.427494	0.377394	6087.937988
5838.450386	0.667844	0.377394	6797.856445
5838.451402	0.087847	0.377394	6887.108887
5838.452279	0.085818	0.377394	6962.371094
5838.453240	0.085957	0.377394	7044.975586
5838.454281	0.085946	0.377394	7134.445312
5838.455210	0.085931	0.377394	7214.275391
5838.456066	0.085920	0.377394	7287.823242
5838.457113	0.085972	0.377394	7377.835449
5838.458117	0.085887	0.377394	7464.066406
5838.459005	0.085990	0.377394	7540.425293
5838.459963	0.086016	0.377394	7622.828125
5839.470165	1.170897	0.377040	660.385986
5839.471206	1.524873	0.377040	2247.778809
5839.472094	1.500557	0.377040	3580.273193
5839.473029	1.461211	0.377040	4946.505371
5839.474074	1.418705	0.377040	6429.051758
5839.475019	0.496454	0.377040	6898.200684
5839.475883	0.087993	0.377040	6974.226562
5839.476926	0.085913	0.377040	7063.833984
5839.477946	0.085902	0.377040	7151.454102
5839.478819	0.085785	0.377040	7226.344238
5839.479768	0.085895	0.377040	7307.858398
5839.480816	0.085909	0.377040	7397.891602
5839.481743	0.085833	0.377040	7477.458496
5839.482613	0.085880	0.377040	7552.174316
5839.483669	0.085983	0.377040	7642.972168
5839.484687	0.085836	0.377040	7730.353516
5840.492992	1.043580	0.397729	445.608795
5840.494083	1.522485	0.397729	2106.640381
5840.495023	1.502073	0.397729	3518.588867
5840.495901	1.464862	0.397729	4804.737793
5840.496894	1.425414	0.397729	6220.173828
5840.497906	0.616091	0.397729	6843.658203
5840.498783	0.089729	0.397729	6922.350586
5840.499637	0.085814	0.397729	6995.635742
5840.500686	0.085902	0.397729	7085.747070
5840.501608	0.085906	0.397729	7164.952148
5840.502484	0.085851	0.397729	7240.157715
5840.503429	0.085946	0.397729	7321.376953
5840.504470	0.085931	0.397729	7410.831543
5840.505357	0.085906	0.397729	7487.029785
5840.506219	0.085935	0.397729	7561.105957
5840.507272	0.085876	0.397729	7651.533691
5841.527357	1.147899	0.394950	635.936157
5841.528282	1.523665	0.394950	2045.325928
5841.529195	1.504567	0.394950	3418.995117
5841.530075	1.466466	0.394950	4709.485352
5841.531122	1.424604	0.394950	6201.045898
5841.532020	0.782018	0.394950	6903.297852
5841.532894	0.094717	0.394950	6986.080566
5841.533872	0.085781	0.394950	7069.974609
5841.534826	0.085891	0.394950	7151.914551
5841.535743	0.085891	0.394950	7230.676758
5841.536610	0.085986	0.394950	7305.227051
5841.537646	0.085942	0.394950	7394.263184
5841.538523	0.085902	0.394950	7469.599121
5841.539386	0.085858	0.394950	7543.694824
5841.540311	0.085953	0.394950	7623.201660
5841.541302	0.085891	0.394950	7708.319824
5842.548180	1.047125	0.401613	465.970734
5842.549044	1.515513	0.401613	1775.373657
5842.550097	1.505054	0.401613	3360.195312
5842.551109	1.462844	0.401613	4840.593750
5842.551999	1.426666	0.401613	6110.326660
5842.552985	0.738036	0.401613	6838.030273
5842.554037	0.088773	0.401613	6931.419434
5842.554944	0.085825	0.401613	7009.262695
5842.555803	0.085880	0.401613	7083.033691
5842.556896	0.085909	0.401613	7176.932617
5842.557855	0.085895	0.401613	7259.305664
5842.558735	0.085906	0.401613	7334.902832
5842.559717	0.086038	0.401613	7419.391602
5842.560761	0.085986	0.401613	7509.161133
5842.561662	0.085946	0.401613	7586.598633
5842.562523	0.085898	0.401613	7660.557129
5843.586566	1.096252	0.402696	547.029968
5843.587584	1.523818	0.402696	2098.277100
5843.588478	1.504065	0.402696	3442.911133
5843.589449	1.463617	0.402696	4864.083008
5843.590515	1.419998	0.402696	6377.800293
5843.591441	0.552224	0.402696	6889.159668
5843.592301	0.088978	0.402696	6965.681152
5843.593375	0.086008	0.402696	7058.054199
5843.594365	0.085891	0.402696	7143.086426
5843.595241	0.085862	0.402696	7218.301270
5843.596227	0.085997	0.402696	7303.094727
5843.597257	0.085953	0.402696	7391.626465
5843.598153	0.085964	0.402696	7468.650391
5843.599009	0.085939	0.402696	7542.213867
5843.600094	0.085994	0.402696	7635.517090
5843.601085	0.085844	0.402696	7720.587891
5844.608444	1.029595	0.407502	437.577728
5844.609416	1.516395	0.407502	1911.513916
5844.610465	1.502776	0.407502	3487.925781
5844.611379	1.463785	0.407502	4825.825684
5844.612245	1.427142	0.407502	6061.730957
5844.613341	0.648398	0.407502	6772.375488
5844.614333	0.087686	0.407502	6859.359375
5844.615223	0.085854	0.407502	6935.770020
5844.616202	0.086027	0.407502	7019.990234
5844.617240	0.085942	0.407502	7109.198242
5844.618129	0.085968	0.407502	7185.624023
5844.618988	0.086016	0.407502	7259.511230
5844.620080	0.086034	0.407502	7353.460449
5844.621042	0.085869	0.407502	7436.066406
5844.621901	0.085957	0.407502	7509.903320
5844.622975	0.086100	0.407502	7602.374512
5845.643785	1.091825	0.404602	543.728882
5845.644677	1.520416	0.404602	1899.940186
5845.645537	1.508591	0.404602	3197.328613
5845.646635	1.464587	0.404602	4805.445312
5845.647597	1.425209	0.404602	6176.496094
5845.648472	0.832229	0.404602	6904.696289
5845.649528	0.090956	0.404602	7000.745605
5845.650569	0.085924	0.404602	7090.192383
5845.651457	0.085953	0.404602	7166.519043
5845.652382	0.086001	0.404602	7246.069824
5845.653449	0.086012	0.404602	7337.844727
5845.654393	0.085917	0.404602	7418.950195
5845.655256	0.085917	0.404602	7493.096191
5845.656293	0.086027	0.404602	7582.305664
5845.657305	0.085931	0.404602	7669.268066
5845.658192	0.085840	0.404602	7745.408203
5846.673917	1.095630	0.413794	532.476135
5846.674796	1.519039	0.413794	1867.711670
5846.675659	1.510393	0.413794	3171.180908
5846.676732	1.466385	0.413794	4744.612305
5846.677666	1.428040	0.413794	6078.401367
5846.678532	0.942275	0.413794	6894.412109
5846.679585	0.095684	0.413794	6995.166992
5846.680597	0.085887	0.413794	7082.084961
5846.681475	0.085851	0.413794	7157.461914
5846.682422	0.085968	0.413794	7238.873535
5846.683505	0.085924	0.413794	7331.929199
5846.684407	0.085865	0.413794	7409.379883
5846.685268	0.085902	0.413794	7483.341797
5846.686302	0.085950	0.413794	7572.213867
5846.687308	0.085917	0.413794	7658.645996
5846.688197	0.085876	0.413794	7734.990234
5847.691725	1.037384	0.432864	451.262054
5847.692602	1.516044	0.432864	1780.832397
5847.693648	1.506475	0.432864	3356.604980
5847.694551	1.467876	0.432864	4682.096680
5847.695428	1.431595	0.432864	5937.605957
5847.696342	0.964006	0.432864	6818.707520
5847.697370	0.097661	0.432864	6919.103027
5847.698254	0.085895	0.432864	6995.034180
5847.699120	0.085979	0.432864	7069.492187
5847.700102	0.085942	0.432864	7153.887695
5847.701023	0.085979	0.432864	7233.074219
5847.701927	0.085909	0.432864	7310.736328
5847.702803	0.085913	0.432864	7385.996094
5847.703832	0.085880	0.432864	7474.366699
5847.704717	0.085953	0.432864	7550.435547
5847.705589	0.085884	0.432864	7625.326172
5848.734163	1.046949	0.446029	460.657715
5848.735034	1.515333	0.446029	1780.512939
5848.736091	1.505409	0.446029	3371.729980
5848.737107	1.462888	0.446029	4858.024414
5848.737988	1.426659	0.446029	6114.911133
5848.738963	0.749128	0.446029	6845.311523
5848.740028	0.089011	0.446029	6940.108398
5848.740923	0.085924	0.446029	7017.010254
5848.741791	0.085972	0.446029	7091.633789
5848.742869	0.086038	0.446029	7184.382324
5848.743868	0.085887	0.446029	7270.184082
5848.744758	0.085876	0.446029	7346.614258
5848.745736	0.085953	0.446029	7430.676758
5848.746788	0.085902	0.446029	7521.045898
5848.747688	0.085939	0.446029	7598.390625
5848.748555	0.085906	0.446029	7672.871094
5849.742872	1.104943	0.421895	554.681213
5849.743836	1.523287	0.421895	2023.130127
5849.744710	1.506390	0.421895	3339.715332
5849.745742	1.463493	0.421895	4850.039551
5849.746786	1.421210	0.421895	6333.782227
5849.747678	0.650654	0.421895	6914.166016
5849.748568	0.090831	0.421895	6995.005859
5849.749640	0.085990	0.421895	7087.187012
5849.750576	0.085891	0.421895	7167.581055
5849.751444	0.085840	0.421895	7242.089844
5849.752464	0.085968	0.421895	7329.777344
5849.753500	0.085931	0.421895	7418.802246
5849.754386	0.085898	0.421895	7494.908203
5849.755312	0.085972	0.421895	7574.518066
5849.756372	0.086012	0.421895	7665.690918
5849.757317	0.085887	0.421895	7746.854492
5850.790849	1.030129	0.440321	437.805023
5850.791722	1.514161	0.440321	1759.667969
5850.792839	1.503713	0.440321	3439.315918
5850.793790	1.463617	0.440321	4831.215820
5850.794653	1.428116	0.440321	6063.680176
5850.795698	0.716235	0.440321	6812.145996
5850.796731	0.088649	0.440321	6903.720215
5850.797608	0.085957	0.440321	6979.104492
5850.798541	0.086049	0.440321	7059.387695
5850.799608	0.086012	0.440321	7151.162598
5850.800543	0.085953	0.440321	7231.528809
5850.801401	0.085964	0.440321	7305.286133
5850.802432	0.085983	0.440321	7393.934082
5850.803462	0.085994	0.440321	7482.507324
5850.804351	0.086038	0.440321	7558.994629
5850.805298	0.086060	0.440321	7640.493164
5851.803590	1.045367	0.426774	451.598694
5851.804467	1.515421	0.426774	1780.623047
5851.805489	1.507075	0.426774	3320.854004
5851.806556	1.462896	0.426774	4881.763672
5851.807443	1.425809	0.426774	6146.456543
5851.808344	0.808228	0.426774	6874.669434
5851.809434	0.089872	0.426774	6972.629883
5851.810375	0.085880	0.426774	7053.442871
5851.811236	0.085997	0.426774	7127.486328
5851.812256	0.086049	0.426774	7215.255859
5851.813298	0.085942	0.426774	7304.807617
5851.814167	0.085935	0.426774	7379.485352
5851.815087	0.085928	0.426774	7458.539062
5851.816153	0.085909	0.426774	7550.118652
5851.817097	0.085950	0.426774	7631.255371
5851.817967	0.085895	0.426774	7705.983887
5852.851135	1.023823	0.413609	435.124878
5852.852178	1.519530	0.413609	2019.994751
5852.853224	1.500176	0.413609	3589.178711
5852.854102	1.462313	0.413609	4873.089844
5852.855030	1.424209	0.413609	6194.755859
5852.856105	0.554670	0.413609	6791.026367
5852.857047	0.087330	0.413609	6873.291504
5852.857916	0.085906	0.413609	6947.943848
5852.858959	0.085997	0.413609	7037.639160
5852.859975	0.085964	0.413609	7124.979004
5852.860861	0.085946	0.413609	7201.126953
5852.861826	0.086067	0.413609	7284.181641
5852.862882	0.086049	0.413609	7375.048828
5852.863806	0.085994	0.413609	7454.506836
5852.864665	0.085983	0.413609	7528.365723
5852.865739	0.086078	0.413609	7620.813477
5853.867966	1.034476	0.437908	437.583466
5853.869048	1.521149	0.437908	2083.466309
5853.870047	1.499733	0.437908	3581.699219
5853.870925	1.462639	0.437908	4865.896484
5853.871939	1.422129	0.437908	6307.935059
5853.872999	0.495601	0.437908	6833.271484
5853.873878	0.087228	0.437908	6909.944824
5853.874739	0.085880	0.437908	6983.887695
5853.875849	0.086056	0.437908	7079.409668
5853.876797	0.085840	0.437908	7160.785645
5853.877661	0.085920	0.437908	7235.020996
5853.878689	0.085990	0.437908	7323.418945
5853.879730	0.085917	0.437908	7412.858398
5853.880614	0.085898	0.437908	7488.792480
5853.881512	0.085920	0.437908	7565.949219
5853.882596	0.085895	0.437908	7659.059082
5854.897093	1.043339	0.459894	450.722290
5854.897965	1.515055	0.459894	1771.850220
5854.898985	1.507288	0.459894	3309.283691
5854.899977	1.465320	0.459894	4762.880859
5854.900861	1.429134	0.459894	6026.235840
5854.901730	0.950680	0.459894	6852.376465
5854.902827	0.095222	0.459894	6956.834961
5854.903711	0.085796	0.459894	7032.678711
5854.904574	0.085822	0.459894	7106.742676
5854.905562	0.085972	0.459894	7191.682617
5854.906561	0.085807	0.459894	7277.403809
5854.907456	0.085851	0.459894	7354.240234
5854.908322	0.085946	0.459894	7428.669434
5854.909408	0.085990	0.459894	7522.054687
5854.910324	0.085895	0.459894	7600.734375
5854.911195	0.085836	0.459894	7675.497559
5855.928245	1.020956	0.455612	428.801422
5855.929241	1.516652	0.455612	1939.386353
5855.930168	1.506024	0.455612	3335.470703
5855.931086	1.467686	0.455612	4682.806152
5855.931957	1.430874	0.455612	5929.097656
5855.933021	0.815823	0.455612	6797.133301
5855.933905	0.095845	0.455612	6881.859863
5855.934779	0.085774	0.455612	6956.826172
5855.935756	0.085950	0.455612	7040.798828
5855.936713	0.085851	0.455612	7122.958008
5855.937632	0.085840	0.455612	7201.844727
5855.938500	0.085811	0.455612	7276.328125
5855.939538	0.085873	0.455612	7365.463867
5855.940417	0.085873	0.455612	7440.946289
5855.941291	0.085880	0.455612	7516.005371
5855.942208	0.086005	0.455612	7594.871582
5856.947638	1.032876	0.463576	432.775055
5856.948743	1.522138	0.463576	2114.737061
5856.949740	1.498817	0.463576	3609.057617
5856.950637	1.461072	0.463576	4919.638672
5856.951642	1.420829	0.463576	6347.571777
5856.952691	0.463967	0.463576	6834.273437
5856.953579	0.086832	0.463576	6911.380371
5856.954451	0.085858	0.463576	6986.248535
5856.955537	0.085979	0.463576	7079.621582
5856.956495	0.085880	0.463576	7161.894531
5856.957358	0.085902	0.463576	7236.027832
5856.958394	0.085928	0.463576	7325.048828
5856.959432	0.085917	0.463576	7414.230469
5856.960307	0.085902	0.463576	7489.395020
5856.961208	0.085869	0.463576	7566.763184
5856.962300	0.085884	0.463576	7660.548340
5857.984509	1.061477	0.457961	521.185242
5857.985569	1.522822	0.457961	2135.376953
5857.986517	1.499923	0.457961	3557.303955
5857.987386	1.462797	0.457961	4828.474121
5857.988450	1.419939	0.457961	6339.289062
5857.989467	0.462187	0.457961	6809.333496
5857.990348	0.087279	0.457961	6886.226562
5857.991320	0.085898	0.457961	6969.719727
5857.992356	0.085961	0.457961	7058.774902
5857.993272	0.085865	0.457961	7137.427734
5857.994128	0.085946	0.457961	7210.997559
5857.995201	0.085957	0.457961	7303.229492
5857.996208	0.085851	0.457961	7389.681152
5857.997079	0.085884	0.457961	7464.485840
5857.998044	0.086052	0.457961	7547.526367
5857.999090	0.086019	0.457961	7637.502441
5859.006405	1.030096	0.443648	445.001648
5859.007274	1.514550	0.443648	1761.145264
5859.008345	1.505193	0.443648	3373.206787
5859.009363	1.462295	0.443648	4861.823242
5859.010261	1.425513	0.443648	6141.933594
5859.011229	0.742877	0.443648	6861.038574
5859.012266	0.089026	0.443648	6953.358398
5859.013186	0.085836	0.443648	7032.327637
5859.014044	0.086012	0.443648	7106.125977
5859.015125	0.086111	0.443648	7199.211914
5859.016116	0.086005	0.443648	7284.442383
5859.016992	0.085891	0.443648	7359.683105
5859.017983	0.085953	0.443648	7444.862793
5859.019035	0.086008	0.443648	7535.343750
5859.019937	0.085986	0.443648	7612.903320
5859.020792	0.085983	0.443648	7686.418457
5860.045828	1.096945	0.438411	537.502869
5860.046712	1.519354	0.438411	1880.612061
5860.047668	1.506980	0.438411	3321.285156
5860.048729	1.462335	0.438411	4872.822754
5860.049672	1.423993	0.438411	6215.647949
5860.050535	0.798014	0.438411	6904.333984
5860.051582	0.090370	0.438411	6998.951172
5860.052589	0.085975	0.438411	7085.528320
5860.053482	0.085928	0.438411	7162.261719
5860.054446	0.086104	0.438411	7245.265625
5860.055491	0.085979	0.438411	7335.113770
5860.056409	0.086001	0.438411	7414.062500
5860.057271	0.085994	0.438411	7488.188965
5860.058337	0.086041	0.438411	7579.909180
5860.059339	0.085924	0.438411	7666.004883
5860.060227	0.085939	0.438411	7742.318359
5861.066185	1.039003	0.429392	453.005157
5861.067058	1.515289	0.429392	1775.852661
5861.067999	1.510067	0.429392	3196.825684
5861.069048	1.466294	0.429392	4734.967773
5861.069948	1.429189	0.429392	6021.238281
5861.070822	0.985118	0.429392	6882.231934
5861.071874	0.096943	0.429392	6984.216309
5861.072838	0.085825	0.429392	7066.951660
5861.073712	0.085968	0.429392	7142.087891
5861.074625	0.085990	0.429392	7220.596680
5861.075674	0.086063	0.429392	7310.876953
5861.076555	0.085913	0.429392	7386.566406
5861.077416	0.085968	0.429392	7460.584961
5861.078463	0.086023	0.429392	7550.650879
5861.079412	0.085917	0.429392	7632.186035
5861.080272	0.085880	0.429392	7706.042969
5862.104512	1.033953	0.415788	442.531769
5862.105557	1.521127	0.415788	2032.109009
5862.106441	1.505988	0.415788	3363.401855
5862.107315	1.468795	0.415788	4647.128906
5862.108205	1.430980	0.415788	5920.701172
5862.109254	0.855795	0.415788	6818.429687
5862.110134	0.098134	0.415788	6904.787109
5862.111006	0.085865	0.415788	6979.661621
5862.112003	0.085994	0.415788	7065.397461
5862.112930	0.085920	0.415788	7145.045898
5862.113851	0.085994	0.415788	7224.246094
5862.114714	0.085906	0.415788	7298.382812
5862.115753	0.085884	0.415788	7387.616211
5862.116637	0.085917	0.415788	7463.566406
5862.117509	0.085964	0.415788	7538.527344
5862.118500	0.085939	0.415788	7623.692383
5863.125504	1.087657	0.424212	530.776855
5863.126386	1.519460	0.424212	1870.940918
5863.127321	1.507463	0.424212	3280.419189
5863.128403	1.462214	0.424212	4862.535156
5863.129351	1.423590	0.424212	6212.098633
5863.130220	0.795201	0.424212	6903.128418
5863.131279	0.090223	0.424212	6998.674805
5863.132292	0.085876	0.424212	7085.667480
5863.133171	0.085931	0.424212	7161.201172
5863.134140	0.085942	0.424212	7244.479492
5863.135191	0.085972	0.424212	7334.835937
5863.136108	0.085869	0.424212	7413.578125
5863.136965	0.085851	0.424212	7487.152344
5863.138021	0.085902	0.424212	7577.864746
5863.139026	0.085920	0.424212	7664.214844
5863.139897	0.085939	0.424212	7739.067383
5864.158242	1.115713	0.416546	573.476440
5864.159184	1.522731	0.416546	2007.888794
5864.160045	1.506910	0.416546	3305.338867
5864.161106	1.462716	0.416546	4857.280762
5864.162129	1.420964	0.416546	6310.927246
5864.163025	0.661600	0.416546	6903.721191
5864.163984	0.090868	0.416546	6990.863281
5864.165027	0.085913	0.416546	7080.470703
5864.165945	0.085814	0.416546	7159.248047
5864.166802	0.085847	0.416546	7232.818848
5864.167837	0.085924	0.416546	7321.750488
5864.168854	0.085917	0.416546	7409.127930
5864.169739	0.085876	0.416546	7485.128418
5864.170701	0.085818	0.416546	7567.685059
5864.171754	0.085968	0.416546	7658.209473
5864.172677	0.085836	0.416546	7737.436035
5865.182166	1.065395	0.436929	481.558746
5865.183048	1.517358	0.436929	1819.868896
5865.184031	1.507694	0.436929	3301.932129
5865.185091	1.463097	0.436929	4852.814941
5865.186002	1.425538	0.436929	6151.480469
5865.186873	0.834807	0.436929	6878.597656
5865.187962	0.090634	0.436929	6977.297363
5865.188942	0.085898	0.436929	7061.478027
5865.189820	0.085972	0.436929	7136.960937
5865.190822	0.086067	0.436929	7223.200195
5865.191875	0.085983	0.436929	7313.739746
5865.192757	0.086008	0.436929	7389.599121
5865.193627	0.086067	0.436929	7464.477539
5865.194716	0.086180	0.436929	7558.328125
5865.195679	0.085986	0.436929	7641.132812
5865.196540	0.085968	0.436929	7715.151367
5866.213816	1.034121	0.431688	435.364960
5866.214903	1.521991	0.431688	2089.769043
5866.215828	1.502560	0.431688	3479.636719
5866.216710	1.465342	0.431688	4772.068359
5866.217712	1.425238	0.431688	6200.156738
5866.218723	0.626279	0.431688	6833.325195
5866.219602	0.089864	0.431688	6912.315918
5866.220458	0.085869	0.431688	6985.819824
5866.221538	0.085983	0.431688	7078.681152
5866.222439	0.085836	0.431688	7156.019531
5866.223313	0.085887	0.431688	7231.084961
5866.224273	0.086038	0.431688	7313.681152
5866.225291	0.085840	0.431688	7401.065918
5866.226180	0.085880	0.431688	7477.413574
5866.227041	0.085928	0.431688	7551.397461
5866.228104	0.085953	0.431688	7642.766113
5867.242452	1.055984	0.449078	466.744873
5867.243325	1.515751	0.449078	1789.995239
5867.244185	1.511503	0.449078	3089.887695
5867.245238	1.469191	0.449078	4636.945312
5867.246115	1.432544	0.449078	5893.286133
5867.246996	1.090309	0.449078	6853.848145
5867.247969	0.128441	0.449078	6978.821289
5867.248915	0.085851	0.449078	7060.036133
5867.249815	0.085781	0.449078	7137.239258
5867.250687	0.085778	0.449078	7212.037109
5867.251714	0.085920	0.449078	7300.277344
5867.252613	0.085865	0.449078	7377.470215
5867.253488	0.085862	0.449078	7452.599121
5867.254399	0.085953	0.449078	7530.902832
5867.255410	0.085865	0.449078	7617.712891
5867.256292	0.085917	0.449078	7693.491699
5868.271133	1.108872	0.444780	563.307007
5868.272089	1.522720	0.444780	2019.027100
5868.272949	1.506705	0.444780	3314.793701
5868.273991	1.462390	0.444780	4838.604004
5868.275054	1.419950	0.444780	6348.010742
5868.275938	0.629498	0.444780	6904.487305
5868.276894	0.090201	0.444780	6990.719727
5868.277941	0.085902	0.444780	7080.659180
5868.278860	0.085917	0.444780	7159.616699
5868.279725	0.085975	0.444780	7233.985352
5868.280768	0.086078	0.444780	7323.764648
5868.281778	0.085895	0.444780	7410.518555
5868.282666	0.085847	0.444780	7486.750977
5868.283624	0.085990	0.444780	7569.129395
5868.284681	0.085906	0.444780	7659.931641
5868.285603	0.085844	0.444780	7739.079590
5869.300264	1.102852	0.454025	588.922729
5869.301321	1.523745	0.454025	2199.521240
5869.302239	1.499403	0.454025	3575.973145
5869.303105	1.461376	0.454025	4841.524414
5869.304197	1.418478	0.454025	6390.501953
5869.305195	0.425123	0.454025	6814.774902
5869.306081	0.087015	0.454025	6891.870605
5869.307070	0.085972	0.454025	6976.896484
5869.308126	0.085898	0.454025	7067.605469
5869.309004	0.085876	0.454025	7143.004883
5869.309865	0.085884	0.454025	7216.950684
5869.310986	0.085990	0.454025	7313.345703
5869.311945	0.085913	0.454025	7395.736328
5869.312802	0.085869	0.454025	7469.326172
5869.313836	0.086045	0.454025	7558.296387
5869.314884	0.085920	0.454025	7648.340820
5870.328786	1.050637	0.443475	465.432312
5870.329651	1.515176	0.443475	1776.059326
5870.330756	1.503552	0.443475	3437.484375
5870.331736	1.461885	0.443475	4870.131348
5870.332619	1.425992	0.443475	6129.282715
5870.333629	0.710750	0.443475	6847.139648
5870.334682	0.088352	0.443475	6940.174316
5870.335551	0.085931	0.443475	7014.848633
5870.336411	0.086008	0.443475	7088.815918
5870.337519	0.086023	0.443475	7184.129395
5870.338475	0.085939	0.443475	7266.286621
5870.339343	0.085854	0.443475	7340.808105
5870.340401	0.086005	0.443475	7431.800781
5870.341446	0.085975	0.443475	7521.645020
5870.342337	0.085909	0.443475	7598.190430
5870.343264	0.086023	0.443475	7677.933594
5871.358407	1.029694	0.452954	448.946411
5871.359272	1.514894	0.452954	1759.329468
5871.360167	1.510386	0.452954	3111.124756
5871.361267	1.466451	0.452954	4724.221191
5871.362165	1.429134	0.452954	6007.583984
5871.363037	0.997617	0.452954	6877.505859
5871.364061	0.100807	0.452954	6980.731934
5871.365036	0.085829	0.452954	7064.415039
5871.365911	0.085829	0.452954	7139.515137
5871.366780	0.085953	0.452954	7214.208496
5871.367881	0.085887	0.452954	7308.770508
5871.368781	0.085818	0.452954	7386.006836
5871.369643	0.085876	0.452954	7460.032227
5871.370719	0.085939	0.452954	7552.502441
5871.371675	0.085851	0.452954	7634.575684
5871.372542	0.085814	0.452954	7708.976562
5872.387652	1.152275	0.447926	648.731018
5872.388578	1.523313	0.447926	2059.318848
5872.389496	1.503589	0.447926	3439.613281
5872.390371	1.465704	0.447926	4722.104492
5872.391416	1.424286	0.447926	6210.483398
5872.392309	0.784629	0.447926	6911.157227
5872.393174	0.095317	0.447926	6993.606934
5872.394153	0.085920	0.447926	7077.723145
5872.395093	0.085957	0.447926	7158.522949
5872.396007	0.085931	0.447926	7237.064453
5872.396883	0.085986	0.447926	7312.388672
5872.397918	0.085931	0.447926	7401.327637
5872.398812	0.085913	0.447926	7478.133789
5872.399687	0.085906	0.447926	7553.301270
5872.400602	0.085891	0.447926	7631.891602
5872.401607	0.085884	0.447926	7718.204590
5873.412533	1.025255	0.463455	429.581940
5873.413602	1.521145	0.463455	2055.686035
5873.414620	1.499381	0.463455	3582.055908
5873.415518	1.461376	0.463455	4894.371094
5873.416493	1.422147	0.463455	6280.964844
5873.417548	0.503112	0.463455	6811.747559
5873.418466	0.087063	0.463455	6891.671387
5873.419328	0.085946	0.463455	6965.756836
5873.420406	0.086016	0.463455	7058.481445
5873.421399	0.085825	0.463455	7143.706055
5873.422284	0.085873	0.463455	7219.703613
5873.423278	0.085986	0.463455	7305.173828
5873.424330	0.086023	0.463455	7395.669922
5873.425222	0.085862	0.463455	7472.258789
5873.426078	0.085935	0.463455	7545.819336
5873.427163	0.085906	0.463455	7639.026855
5874.445754	1.028547	0.456994	434.046997
5874.446813	1.520391	0.456994	2044.140625
5874.447836	1.499941	0.456994	3578.580566
5874.448707	1.462474	0.456994	4852.395996
5874.449670	1.423634	0.456994	6223.355469
5874.450735	0.544841	0.456994	6803.611328
5874.451650	0.087433	0.456994	6883.612305
5874.452522	0.085898	0.456994	6958.515625
5874.453588	0.085942	0.456994	7050.130371
5874.454585	0.085869	0.456994	7135.741699
5874.455473	0.085946	0.456994	7212.062012
5874.456447	0.085935	0.456994	7295.762695
5874.457503	0.086019	0.456994	7386.599121
5874.458405	0.085840	0.456994	7464.026855
5874.459268	0.085946	0.456994	7538.198242
5874.460357	0.086038	0.456994	7631.893066
5875.467764	1.089899	0.480644	518.791809
5875.468640	1.518076	0.480644	1848.626465
5875.469633	1.506614	0.480644	3344.693848
5875.470688	1.461899	0.480644	4886.997559
5875.471603	1.424418	0.480644	6190.339844
5875.472470	0.807162	0.480644	6890.149414
5875.473545	0.089864	0.480644	6986.753906
5875.474539	0.085829	0.480644	7072.067871
5875.475431	0.085822	0.480644	7148.620605
5875.476425	0.086034	0.480644	7234.138184
5875.477483	0.085939	0.480644	7325.061523
5875.478377	0.085829	0.480644	7401.792480
5875.479239	0.085939	0.480644	7475.871582
5875.480343	0.086060	0.480644	7570.881348
5875.481294	0.085844	0.480644	7652.518555
5875.482163	0.085884	0.480644	7727.151367
5876.501455	1.044521	0.475452	462.722992
5876.502323	1.515579	0.475452	1778.245239
5876.503190	1.511342	0.475452	3088.578369
5876.504246	1.468173	0.475452	4638.968750
5876.505150	1.431497	0.475452	5933.041992
5876.506024	1.046111	0.475452	6847.342773
5876.507090	0.100719	0.475452	6954.708984
5876.508033	0.085737	0.475452	7035.559082
5876.508909	0.085942	0.475452	7110.844727
5876.509846	0.085961	0.475452	7191.390137
5876.510878	0.085876	0.475452	7280.014648
5876.511753	0.085887	0.475452	7355.166016
5876.512612	0.085935	0.475452	7428.984375
5876.513658	0.086041	0.475452	7518.983398
5876.514599	0.085884	0.475452	7599.799805
5876.515465	0.085895	0.475452	7674.184570
5877.526047	1.097615	0.489998	576.247742
5877.527102	1.523291	0.489998	2183.319824
5877.528020	1.499608	0.489998	3559.959961
5877.528898	1.461442	0.489998	4843.105469
5877.529986	1.418013	0.489998	6385.903320
5877.530995	0.407439	0.489998	6797.009277
5877.531884	0.086708	0.489998	6874.092285
5877.532862	0.085928	0.489998	6958.129395
5877.533902	0.085865	0.489998	7047.429687
5877.534803	0.085928	0.489998	7124.850586
5877.535665	0.085913	0.489998	7198.907715
5877.536743	0.086085	0.489998	7291.707520
5877.537719	0.085858	0.489998	7375.504883
5877.538581	0.085902	0.489998	7449.552734
5877.539589	0.086016	0.489998	7536.256348
5877.540642	0.085891	0.489998	7626.699707
5878.557644	1.041383	0.489551	457.167206
5878.558513	1.515333	0.489551	1773.991821
5878.559540	1.506365	0.489551	3321.028320
5878.560587	1.462896	0.489551	4852.679687
5878.561483	1.425623	0.489551	6130.037598
5878.562408	0.807733	0.489551	6877.190918
5878.563469	0.090099	0.489551	6972.785645
5878.564415	0.085906	0.489551	7054.052734
5878.565277	0.085939	0.489551	7128.131836
5878.566334	0.086067	0.489551	7219.104492
5878.567350	0.085957	0.489551	7306.437012
5878.568231	0.085807	0.489551	7382.032715
5878.569178	0.085953	0.489551	7463.430664
5878.570251	0.085961	0.489551	7555.666504
5878.571176	0.085862	0.489551	7635.088867
5878.572037	0.085946	0.489551	7709.088379
5879.580653	1.085497	0.491823	509.097992
5879.581541	1.518395	0.491823	1857.432495
5879.582412	1.509529	0.491823	3172.231934
5879.583509	1.464646	0.491823	4778.948730
5879.584443	1.426183	0.491823	6111.003418
5879.585330	0.880345	0.491823	6891.869629
5879.586299	0.100594	0.491823	6989.345703
5879.587307	0.085851	0.491823	7075.883301
5879.588189	0.085836	0.491823	7151.590820
5879.589049	0.085895	0.491823	7225.460449
5879.590106	0.085983	0.491823	7316.344238
5879.591037	0.085928	0.491823	7396.342773
5879.591910	0.085876	0.491823	7471.312988
5879.592842	0.085997	0.491823	7551.462402
5879.593869	0.086005	0.491823	7639.789062
5879.594756	0.085876	0.491823	7715.961426
5880.613305	1.035201	0.493704	434.784607
5880.614281	1.519761	0.493704	1918.071045
5880.615210	1.506786	0.493704	3317.875000
5880.616079	1.469634	0.493704	4594.986816
5880.617121	1.427552	0.493704	6082.496582
5880.618017	0.901589	0.493704	6890.320801
5880.618934	0.099873	0.493704	6981.904297
5880.619801	0.085822	0.493704	7056.311523
5880.620794	0.085840	0.493704	7141.550293
5880.621706	0.085902	0.493704	7219.893066
5880.622574	0.085924	0.493704	7294.475098
5880.623577	0.085895	0.493704	7380.627441
5880.624487	0.085800	0.493704	7458.705078
5880.625417	0.085814	0.493704	7538.512207
5880.626279	0.085917	0.493704	7612.572266
5880.627321	0.085796	0.493704	7701.971680
5881.641909	1.039200	0.489386	436.464172
5881.643010	1.522178	0.489386	2112.381836
5881.643992	1.499744	0.489386	3585.130127
5881.644864	1.462412	0.489386	4860.353516
5881.645948	1.418745	0.489386	6398.273437
5881.646982	0.440526	0.489386	6853.777344
5881.647871	0.086766	0.489386	6930.912598
5881.648800	0.085909	0.489386	7010.722656
5881.649864	0.085972	0.489386	7102.196289
5881.650801	0.085931	0.489386	7182.713867
5881.651664	0.085891	0.489386	7256.837891
5881.652717	0.086016	0.489386	7347.412109
5881.653741	0.085906	0.489386	7435.379395
5881.654623	0.085928	0.489386	7511.167480
5881.655566	0.086027	0.489386	7592.290527
5881.656618	0.085928	0.489386	7682.686523
5882.669118	1.152781	0.488439	634.029358
5882.670172	1.523818	0.488439	2240.134033
5882.671062	1.499714	0.488439	3574.879883
5882.671979	1.460460	0.488439	4914.122070
5882.673067	1.416398	0.488439	6455.162598
5882.674025	0.434095	0.488439	6871.025879
5882.674890	0.087246	0.488439	6946.493652
5882.675933	0.085931	0.488439	7036.120117
5882.676953	0.085891	0.488439	7123.729004
5882.677839	0.085844	0.488439	7199.786133
5882.678778	0.085961	0.488439	7280.503418
5882.679830	0.085983	0.488439	7370.957031
5882.680754	0.085898	0.488439	7450.327148
5882.681614	0.085935	0.488439	7524.231445
5882.682673	0.086118	0.488439	7615.430664
5883.703748	1.044807	0.482509	451.356659
5883.704629	1.515527	0.482509	1786.536255
5883.705638	1.507013	0.482509	3307.112305
5883.706694	1.463383	0.482509	4852.444336
5883.707595	1.425516	0.482509	6136.834473
5883.708502	0.809257	0.482509	6870.830078
5883.709577	0.090110	0.482509	6967.698242
5883.710530	0.085770	0.482509	7049.437500
5883.711392	0.085924	0.482509	7123.503906
5883.712426	0.086016	0.482509	7212.443848
5883.713459	0.085931	0.482509	7301.210937
5883.714342	0.085906	0.482509	7377.065918
5883.715281	0.085979	0.482509	7457.800293
5883.716345	0.086008	0.482509	7549.312988
5883.717273	0.085862	0.482509	7628.992676
5883.718133	0.085917	0.482509	7702.880859
5884.722107	1.025090	0.500077	433.613220
5884.723125	1.516739	0.500077	1977.654053
5884.724031	1.505299	0.500077	3341.455078
5884.724940	1.466931	0.500077	4674.895508
5884.725825	1.429640	0.500077	5940.126953
5884.726869	0.825769	0.500077	6802.229980
5884.727750	0.096757	0.500077	6887.472656
5884.728630	0.085869	0.500077	6963.037598
5884.729605	0.085920	0.500077	7046.810059
5884.730549	0.085942	0.500077	7127.939453
5884.731466	0.085917	0.500077	7206.725098
5884.732330	0.085902	0.500077	7280.944336
5884.733360	0.085873	0.500077	7369.393555
5884.734236	0.085887	0.500077	7444.630859
5884.735107	0.085840	0.500077	7519.397461
5884.736037	0.085975	0.500077	7599.354492
5885.766178	1.117244	0.475589	572.028748
5885.767104	1.521672	0.475589	1981.097412
5885.767968	1.506720	0.475589	3282.903320
5885.769024	1.463068	0.475589	4827.902832
5885.770044	1.421514	0.475589	6277.846680
5885.770924	0.717766	0.475589	6909.480957
5885.771881	0.092498	0.475589	6998.000977
5885.772943	0.085964	0.475589	7089.294922
5885.773848	0.085884	0.475589	7167.019531
5885.774718	0.085964	0.475589	7241.808594
5885.775766	0.086060	0.475589	7331.999023
5885.776769	0.085953	0.475589	7418.210449
5885.777659	0.085961	0.475589	7494.715332
5885.778639	0.086027	0.475589	7579.021484
5885.779689	0.085961	0.475589	7669.280273
5885.780601	0.085895	0.475589	7747.616211
5886.775354	1.144504	0.527663	629.477417
5886.776407	1.523749	0.527663	2233.984863
5886.777303	1.499326	0.527663	3577.381104
5886.778220	1.460065	0.527663	4916.260254
5886.779309	1.416149	0.527663	6458.446289
5886.780261	0.433927	0.527663	6871.544922
5886.781127	0.087268	0.527663	6947.119141
5886.782175	0.085895	0.527663	7037.136719
5886.783201	0.085931	0.527663	7125.302246
5886.784093	0.085873	0.527663	7201.900879
5886.785031	0.085975	0.527663	7282.545898
5886.786063	0.085983	0.527663	7371.279785
5886.786982	0.085928	0.527663	7450.247559
5886.787843	0.085891	0.527663	7524.199707
5886.788904	0.085961	0.527663	7615.403809
5887.824309	1.020509	0.509265	429.634277
5887.825336	1.519468	0.509265	1990.127563
5887.826370	1.500410	0.509265	3541.551758
5887.827265	1.462196	0.509265	4850.217285
5887.828204	1.424150	0.509265	6187.494629
5887.829271	0.570223	0.509265	6795.922852
5887.830210	0.087491	0.509265	6878.077148
5887.831072	0.085891	0.509265	6952.115234
5887.832120	0.086012	0.509265	7042.255859
5887.833124	0.085844	0.509265	7128.442871
5887.834015	0.085891	0.509265	7204.971680
5887.834959	0.085997	0.509265	7286.153320
5887.836002	0.085946	0.509265	7375.794922
5887.836930	0.085818	0.509265	7455.434082
5887.837785	0.085979	0.509265	7528.946289
5887.838848	0.086030	0.509265	7620.396484
5888.830903	1.020483	0.519981	430.643982
5888.831823	1.512924	0.519981	1822.533691
5888.832899	1.503329	0.519981	3440.115479
5888.833790	1.465261	0.519981	4745.663086
5888.834655	1.429691	0.519981	5982.345703
5888.835700	0.781077	0.519981	6798.570801
5888.836657	0.091479	0.519981	6886.116699
5888.837533	0.085822	0.519981	6961.296387
5888.838420	0.085906	0.519981	7037.494629
5888.839499	0.085931	0.519981	7130.214844
5888.840374	0.085895	0.519981	7205.372559
5888.841230	0.085891	0.519981	7278.895508
5888.842292	0.085961	0.519981	7370.185547
5888.843262	0.085953	0.519981	7453.560547
5888.844139	0.085946	0.519981	7528.935059
5888.844997	0.086019	0.519981	7602.739746
5889.880004	1.034026	0.543091	445.665100
5889.880874	1.514356	0.543091	1763.154541
5889.881930	1.504841	0.543091	3352.267090
5889.882947	1.462178	0.543091	4839.301758
5889.883846	1.425513	0.543091	6120.837891
5889.884823	0.745778	0.543091	6849.462402
5889.885877	0.088517	0.543091	6942.759277
5889.886791	0.085818	0.543091	7021.196777
5889.887652	0.085862	0.543091	7095.124023
5889.888718	0.085909	0.543091	7186.703613
5889.889699	0.085807	0.543091	7270.880371
5889.890584	0.085840	0.543091	7346.848633
5889.891579	0.085931	0.543091	7432.350586
5889.892619	0.085873	0.543091	7521.658203
5889.893518	0.085851	0.543091	7598.837891
5889.894374	0.085865	0.543091	7672.338867
5890.890686	1.030961	0.507920	441.251160
5890.891717	1.519618	0.507920	2007.977295
5890.892753	1.499429	0.507920	3561.385498
5890.893652	1.461368	0.507920	4875.155762
5890.894607	1.422942	0.507920	6234.065430
5890.895669	0.537195	0.507920	6804.566406
5890.896592	0.087242	0.507920	6885.091309
5890.897462	0.085759	0.507920	6959.701660
5890.898523	0.085939	0.507920	7050.882812
5890.899530	0.085873	0.507920	7137.356934
5890.900419	0.085829	0.507920	7213.658691
5890.901379	0.085975	0.507920	7296.194824
5890.902419	0.085895	0.507920	7385.525391
5890.903329	0.085880	0.507920	7463.676270
5890.904192	0.085917	0.507920	7537.822266
5890.905260	0.085851	0.507920	7629.510742
5891.934774	1.138634	0.520601	626.248718
5891.935847	1.523361	0.520601	2260.814697
5891.936727	1.498920	0.520601	3579.863770
5891.937592	1.460413	0.520601	4843.120605
5891.938709	1.416680	0.520601	6425.551758
5891.939688	0.430367	0.520601	6846.881348
5891.940554	0.087144	0.520601	6922.347656
5891.941570	0.085972	0.520601	7009.694824
5891.942616	0.085917	0.520601	7099.563965
5891.943505	0.085913	0.520601	7175.940918
5891.944434	0.085928	0.520601	7255.767578
5891.945501	0.085972	0.520601	7347.499512
5891.946446	0.085807	0.520601	7428.586914
5891.947306	0.085928	0.520601	7502.484863
5891.948344	0.086001	0.520601	7591.753906
5892.953537	1.031949	0.512698	441.674347
5892.954406	1.513817	0.512698	1757.181396
5892.955468	1.504838	0.512698	3355.318848
5892.956405	1.465309	0.512698	4728.313477
5892.957289	1.429380	0.512698	5991.885254
5892.958278	0.849822	0.512698	6832.358887
5892.959300	0.091113	0.512698	6925.476562
5892.960187	0.085836	0.512698	7001.613281
5892.961048	0.085822	0.512698	7075.505859
5892.962122	0.085942	0.512698	7167.808105
5892.963061	0.085880	0.512698	7248.449707
5892.963944	0.085865	0.512698	7324.269043
5892.964904	0.085975	0.512698	7406.805176
5892.965927	0.085847	0.512698	7494.626953
5892.966810	0.085851	0.512698	7570.433105
5892.967668	0.085796	0.512698	7644.045898
5893.986250	1.037596	0.525834	450.316864
5893.987124	1.515223	0.525834	1774.622192
5893.987987	1.511825	0.525834	3079.327148
5893.989046	1.468770	0.525834	4634.753906
5893.989949	1.431266	0.525834	5927.187012
5893.990831	1.065890	0.525834	6867.301758
5893.991757	0.126636	0.525834	6984.566406
5893.992742	0.085869	0.525834	7069.147461
5893.993668	0.085854	0.525834	7148.648926
5893.994529	0.085928	0.525834	7222.632812
5893.995536	0.085986	0.525834	7309.221191
5893.996429	0.085964	0.525834	7385.987305
5893.997342	0.085865	0.525834	7464.382324
5893.998218	0.086012	0.525834	7539.729004
5893.999250	0.085946	0.525834	7628.425293
5894.000143	0.085924	0.525834	7705.155273
5895.015439	1.101753	0.529210	560.792297
5895.016340	1.520270	0.529210	1930.555420
5895.017203	1.506833	0.529210	3230.952637
5895.018306	1.462478	0.529210	4844.065918
5895.019297	1.421982	0.529210	6253.250488
5895.020177	0.736956	0.529210	6901.771484
5895.021171	0.091838	0.529210	6993.058594
5895.022233	0.085950	0.529210	7084.337402
5895.023122	0.085858	0.529210	7160.665527
5895.024005	0.085906	0.529210	7236.520508
5895.025096	0.085990	0.529210	7330.335449
5895.026061	0.085946	0.529210	7413.273437
5895.026926	0.085854	0.529210	7487.537598
5895.027936	0.086023	0.529210	7574.420898
5895.028960	0.085968	0.529210	7662.452148
5895.029856	0.085902	0.529210	7739.420410
5896.039387	1.061195	0.552288	472.231781
5896.040255	1.515381	0.552288	1787.582397
5896.041316	1.504193	0.552288	3383.531250
5896.042337	1.461200	0.552288	4875.416504
5896.043225	1.425044	0.552288	6140.855469
5896.044219	0.728181	0.552288	6864.667480
5896.045272	0.088411	0.552288	6957.763672
5896.046184	0.085924	0.552288	7036.126465
5896.047039	0.085869	0.552288	7109.544434
5896.048114	0.086096	0.552288	7202.097656
5896.049108	0.085917	0.552288	7287.499023
5896.049987	0.085968	0.552288	7363.064941
5896.050966	0.086115	0.552288	7447.371094
5896.052015	0.086038	0.552288	7537.624512
5896.052927	0.085946	0.552288	7616.007324
5896.053788	0.086005	0.552288	7690.057129
5897.072136	1.102870	0.552771	540.406250
5897.073017	1.519058	0.552771	1878.696045
5897.073968	1.506292	0.552771	3311.179199
5897.075038	1.461650	0.552771	4875.145020
5897.075977	1.423114	0.552771	6211.449219
5897.076841	0.795147	0.552771	6898.456055
5897.077883	0.090304	0.552771	6992.552734
5897.078913	0.086008	0.552771	7081.141113
5897.079791	0.085891	0.552771	7156.553711
5897.080740	0.086012	0.552771	7238.179199
5897.081785	0.086001	0.552771	7328.050293
5897.082703	0.085913	0.552771	7406.918457
5897.083569	0.086082	0.552771	7481.464844
5897.084649	0.086089	0.552771	7574.440918
5897.085647	0.085840	0.552771	7660.108887
5897.086534	0.085957	0.552771	7736.352539
5898.096075	1.050150	0.543929	456.815308
5898.096945	1.514557	0.543929	1774.479858
5898.098060	1.502366	0.543929	3449.617676
5898.099031	1.461650	0.543929	4868.879883
5898.099899	1.426073	0.543929	6106.710937
5898.100940	0.672294	0.543929	6806.568848
5898.101975	0.087942	0.543929	6897.588867
5898.102853	0.085968	0.543929	6973.068848
5898.103753	0.085986	0.543929	7050.456543
5898.104850	0.085997	0.543929	7144.795410
5898.105790	0.085902	0.543929	7225.543457
5898.106647	0.085898	0.543929	7299.158203
5898.107671	0.086100	0.543929	7387.324219
5898.108695	0.085906	0.543929	7475.291504
5898.109590	0.085895	0.543929	7552.167480
5898.110525	0.086005	0.543929	7632.582031
5899.127751	1.055662	0.541452	456.045837
5899.128814	1.522756	0.541452	2074.735840
5899.129701	1.504171	0.541452	3408.935547
5899.130575	1.467191	0.541452	4691.260742
5899.131581	1.426970	0.541452	6126.792969
5899.132488	0.838019	0.541452	6886.875977
5899.133404	0.095771	0.541452	6974.602539
5899.134279	0.085986	0.541452	7049.840332
5899.135301	0.085939	0.541452	7137.669922
5899.136196	0.085975	0.541452	7214.617676
5899.137068	0.085946	0.541452	7289.562500
5899.138013	0.086074	0.541452	7370.902832
5899.138995	0.085953	0.541452	7455.309082
5899.139916	0.085968	0.541452	7534.485840
5899.140778	0.085997	0.541452	7608.615723
5899.141824	0.085961	0.541452	7698.530762
5900.157962	1.099219	0.520512	550.708557
5900.158911	1.521962	0.520512	1995.050293
5900.159784	1.506130	0.520512	3309.902100
5900.160835	1.462192	0.520512	4846.666504
5900.161859	1.420631	0.520512	6301.392578
5900.162753	0.669825	0.520512	6900.216309
5900.163706	0.091238	0.520512	6987.166016
5900.164746	0.086049	0.520512	7076.656738
5900.165665	0.085895	0.520512	7155.594238
5900.166524	0.085876	0.520512	7229.362305
5900.167589	0.086045	0.520512	7321.000000
5900.168589	0.085931	0.520512	7406.931152
5900.169474	0.085972	0.520512	7483.016113
5900.170440	0.085997	0.520512	7566.089355
5900.171485	0.085946	0.520512	7655.902832
5900.172409	0.085895	0.520512	7735.269531
5901.182910	1.030042	0.513660	438.797699
5901.183902	1.517073	0.513660	1943.733765
5901.184964	1.500322	0.513660	3537.075928
5901.185856	1.462178	0.513660	4841.338379
5901.186755	1.424502	0.513660	6121.965820
5901.187855	0.582451	0.513660	6762.662109
5901.188816	0.087283	0.513660	6846.541016
5901.189682	0.085898	0.513660	6920.929199
5901.190714	0.085968	0.513660	7009.648437
5901.191736	0.085935	0.513660	7097.474121
5901.192622	0.085924	0.513660	7173.603027
5901.193556	0.085891	0.513660	7253.825195
5901.194597	0.086016	0.513660	7343.367676
5901.195539	0.085865	0.513660	7424.252930
5901.196403	0.085898	0.513660	7498.469238
5901.197446	0.086067	0.513660	7588.236816
5902.218691	1.028265	0.491819	446.267151
5902.219558	1.514421	0.491819	1759.270508
5902.220600	1.505621	0.491819	3328.127930
5902.221644	1.462031	0.491819	4854.488281
5902.222544	1.424938	0.491819	6136.932617
5902.223513	0.754589	0.491819	6868.128906
5902.224559	0.088762	0.491819	6960.974121
5902.225490	0.085961	0.491819	7041.003418
5902.226353	0.085957	0.491819	7115.184570
5902.227416	0.086049	0.491819	7206.654297
5902.228419	0.085957	0.491819	7292.869141
5902.229300	0.086016	0.491819	7368.648926
5902.230280	0.086067	0.491819	7452.994629
5902.231325	0.085990	0.491819	7542.854004
5902.232231	0.086038	0.491819	7620.804199
5902.233087	0.086008	0.491819	7694.427246
5903.236538	1.045411	0.521326	440.118164
5903.237621	1.521614	0.521326	2088.025879
5903.238574	1.501300	0.521326	3518.764648
5903.239445	1.464067	0.521326	4793.967285
5903.240472	1.422140	0.521326	6254.504883
5903.241507	0.548313	0.521326	6822.008789
5903.242395	0.087887	0.521326	6900.052246
5903.243328	0.085928	0.521326	6980.222656
5903.244390	0.086074	0.521326	7071.633301
5903.245329	0.085920	0.521326	7152.312500
5903.246190	0.085950	0.521326	7226.315430
5903.247240	0.086089	0.521326	7316.708984
5903.248239	0.085950	0.521326	7402.572754
5903.249129	0.085979	0.521326	7479.094238
5903.250068	0.086038	0.521326	7559.883789
5903.251109	0.086082	0.521326	7649.494629
5904.277518	1.070859	0.487444	543.996521
5904.278478	1.522449	0.487444	2005.547119
5904.279404	1.503823	0.487444	3398.087402
5904.280285	1.466327	0.487444	4689.921387
5904.281307	1.425341	0.487444	6146.619629
5904.282213	0.810465	0.487444	6880.900879
5904.283088	0.095629	0.487444	6964.576172
5904.283982	0.085909	0.487444	7041.379395
5904.285007	0.085924	0.487444	7129.451660
5904.285889	0.085865	0.487444	7205.185059
5904.286759	0.086005	0.487444	7280.009277
5904.287781	0.086063	0.487444	7367.965820
5904.288676	0.085917	0.487444	7444.861328
5904.289584	0.085928	0.487444	7522.883789
5904.290460	0.085990	0.487444	7598.210937
5904.291484	0.085920	0.487444	7686.193359
5905.292216	1.020743	0.530684	429.732971
5905.293179	1.513623	0.530684	1887.351807
5905.294243	1.501366	0.530684	3484.805176
5905.295178	1.461746	0.530684	4851.537109
5905.296054	1.425396	0.530684	6100.183594
5905.297121	0.642773	0.530684	6786.022949
5905.298126	0.087360	0.530684	6873.819336
5905.299016	0.085935	0.530684	6950.301758
5905.299985	0.086023	0.530684	7033.658203
5905.301034	0.086023	0.530684	7123.896484
5905.301953	0.085898	0.530684	7202.836914
5905.302814	0.085917	0.530684	7276.811035
5905.303884	0.086023	0.530684	7368.855469
5905.304860	0.085913	0.530684	7452.706543
5905.305744	0.085975	0.530684	7528.708984
5905.306734	0.086027	0.530684	7613.875488
5906.336183	1.045876	0.496866	441.359833
5906.337288	1.522042	0.496866	2123.216309
5906.338254	1.499553	0.496866	3571.784668
5906.339128	1.462416	0.496866	4849.936035
5906.340154	1.420602	0.496866	6307.473633
5906.341192	0.494429	0.496866	6820.690430
5906.342080	0.087264	0.496866	6898.181152
5906.343014	0.086067	0.496866	6978.567871
5906.344075	0.085979	0.496866	7069.791504
5906.345017	0.085811	0.496866	7150.625000
5906.345882	0.085902	0.496866	7224.930176
5906.346926	0.086008	0.496866	7314.722656
5906.347949	0.085891	0.496866	7402.589355
5906.348850	0.085869	0.496866	7479.957520
5906.349810	0.086038	0.496866	7562.553711
5906.350852	0.086100	0.496866	7652.269531
5907.348433	1.053541	0.532791	461.451080
5907.349302	1.514733	0.532791	1777.753662
5907.350400	1.502948	0.532791	3427.990723
5907.351395	1.460522	0.532791	4881.210449
5907.352278	1.424919	0.532791	6139.414062
5907.353293	0.684500	0.532791	6834.181152
5907.354344	0.088195	0.532791	6926.873535
5907.355222	0.085950	0.532791	7002.337402
5907.356096	0.085968	0.532791	7077.473633
5907.357174	0.086118	0.532791	7170.309082
5907.358128	0.085906	0.532791	7252.263184
5907.358983	0.085902	0.532791	7325.709473
5907.360027	0.086016	0.532791	7415.509766
5907.361057	0.085946	0.532791	7504.034180
5907.361948	0.085836	0.532791	7580.514160
5907.362868	0.085942	0.532791	7659.581055
5908.391868	1.024688	0.517439	435.492187
5908.392740	1.514319	0.517439	1755.978149
5908.393677	1.509653	0.517439	3170.523437
5908.394661	1.468912	0.517439	4615.933105
5908.395579	1.431416	0.517439	5929.973145
5908.396473	1.045323	0.517439	6864.492187
5908.397531	0.102444	0.517439	6972.877930
5908.398436	0.085792	0.517439	7050.520020
5908.399307	0.085950	0.517439	7125.382324
5908.400162	0.086012	0.517439	7198.922363
5908.401212	0.085862	0.517439	7289.077148
5908.402092	0.085928	0.517439	7364.693359
5908.402948	0.085887	0.517439	7438.212891
5908.404014	0.085928	0.517439	7529.812012
5908.404930	0.085946	0.517439	7608.538574
5908.405805	0.085935	0.517439	7683.731934
5909.405116	1.030122	0.525463	437.801880
5909.406056	1.513806	0.525463	1860.779663
5909.407109	1.502695	0.525463	3443.117676
5909.408045	1.462943	0.525463	4812.432617
5909.408915	1.427205	0.525463	6054.100586
5909.409981	0.691124	0.525463	6790.838867
5909.410992	0.088253	0.525463	6880.062988
5909.411871	0.085972	0.525463	6955.632324
5909.412840	0.086008	0.525463	7038.974609
5909.413882	0.085931	0.525463	7128.515137
5909.414798	0.085957	0.525463	7207.251953
5909.415655	0.086023	0.525463	7280.973633
5909.416712	0.085997	0.525463	7371.873047
5909.417716	0.085913	0.525463	7458.129883
5909.418604	0.085862	0.525463	7534.375000
5909.419566	0.086056	0.525463	7617.160645
5910.449086	1.053948	0.517632	451.089661
5910.450211	1.522445	0.517632	2163.840332
5910.451177	1.498535	0.517632	3611.425293
5910.452054	1.461200	0.517632	4892.897461
5910.453098	1.419192	0.517632	6374.533691
5910.454119	0.454318	0.517632	6838.392090
5910.455001	0.087096	0.517632	6915.210937
5910.455927	0.085953	0.517632	6994.803711
5910.456988	0.086049	0.517632	7086.101074
5910.457924	0.085913	0.517632	7166.515625
5910.458785	0.085986	0.517632	7240.549805
5910.459844	0.086085	0.517632	7331.713867
5910.460875	0.085873	0.517632	7420.248535
5910.461751	0.085898	0.517632	7495.495605
5910.462703	0.085990	0.517632	7577.357910
5910.463773	0.085942	0.517632	7669.316406
5911.460366	1.099332	0.513854	556.262085
5911.461273	1.520548	0.513854	1935.399170
5911.462138	1.507181	0.513854	3239.111084
5911.463182	1.463888	0.513854	4767.410156
5911.464194	1.422678	0.513854	6207.160645
5911.465085	0.771365	0.513854	6894.446777
5911.466054	0.094061	0.513854	6985.592285
5911.467111	0.085876	0.513854	7076.363770
5911.468021	0.085854	0.513854	7154.491211
5911.468881	0.085928	0.513854	7228.389160
5911.469986	0.085942	0.513854	7323.355469
5911.470970	0.085822	0.513854	7407.803711
5911.471861	0.085887	0.513854	7484.329590
5911.472859	0.085983	0.513854	7570.140137
5911.473907	0.085920	0.513854	7660.184570
5911.474796	0.085942	0.513854	7736.587402
5912.505786	1.035304	0.506913	436.898254
5912.506870	1.521628	0.506913	2086.343506
5912.507812	1.501322	0.506913	3500.588867
5912.508694	1.463910	0.506913	4791.757324
5912.509672	1.424711	0.506913	6185.124023
5912.510685	0.635438	0.506913	6828.823242
5912.511573	0.089810	0.506913	6908.574219
5912.512433	0.085854	0.506913	6982.409180
5912.513507	0.085986	0.506913	7074.758301
5912.514436	0.085880	0.506913	7154.541016
5912.515301	0.085851	0.506913	7228.801758
5912.516241	0.085957	0.506913	7309.601562
5912.517294	0.085972	0.506913	7400.129883
5912.518171	0.085814	0.506913	7475.389160
5912.519033	0.085909	0.506913	7549.442871
5912.520060	0.085968	0.506913	7637.731934
5913.519146	1.099534	0.504911	591.549133
5913.520214	1.522881	0.504911	2217.985840
5913.521128	1.498433	0.504911	3587.553223
5913.521994	1.460332	0.504911	4852.200684
5913.523088	1.417500	0.504911	6402.945801
5913.524088	0.415594	0.504911	6818.540039
5913.524958	0.086927	0.504911	6894.166992
5913.525940	0.085986	0.504911	6978.605469
5913.526986	0.085983	0.504911	7068.543457
5913.527876	0.085939	0.504911	7145.028809
5913.528743	0.085880	0.504911	7219.486816
5913.529842	0.086005	0.504911	7314.005859
5913.530815	0.085873	0.504911	7397.560059
5913.531682	0.085862	0.504911	7472.002441
5913.532722	0.086019	0.504911	7561.462402
5913.533767	0.085887	0.504911	7651.214844
5914.563111	1.118533	0.497261	581.637024
5914.564077	1.522760	0.497261	2052.623047
5914.564939	1.505200	0.497261	3350.105713
5914.565984	1.461544	0.497261	4877.419434
5914.567023	1.419463	0.497261	6352.241211
5914.567911	0.627107	0.497261	6909.112305
5914.568823	0.090297	0.497261	6991.462891
5914.569887	0.085990	0.497261	7082.956055
5914.570832	0.085778	0.497261	7164.016113
5914.571696	0.085865	0.497261	7238.204102
5914.572716	0.085950	0.497261	7325.873047
5914.573743	0.085902	0.497261	7414.094727
5914.574630	0.085939	0.497261	7490.322266
5914.575577	0.086019	0.497261	7571.782715
5914.576637	0.086045	0.497261	7662.990234
5914.577571	0.085876	0.497261	7743.198730
5915.576860	1.104672	0.508375	566.696533
5915.577745	1.520006	0.508375	1911.901855
5915.578639	1.505922	0.508375	3258.195801
5915.579738	1.461464	0.508375	4864.344238
5915.580691	1.422623	0.508375	6220.104492
5915.581559	0.780970	0.508375	6897.986816
5915.582588	0.090410	0.508375	6991.019043
5915.583622	0.085953	0.508375	7079.895020
5915.584513	0.085891	0.508375	7156.423828
5915.585442	0.085869	0.508375	7236.196289
5915.586511	0.085851	0.508375	7327.970703
5915.587446	0.085811	0.508375	7408.203613
5915.588310	0.085836	0.508375	7482.366211
5915.589371	0.086078	0.508375	7573.694824
5915.590372	0.085865	0.508375	7659.645996
5915.591261	0.085917	0.508375	7736.025879
5916.619308	1.112747	0.498751	598.657654
5916.620324	1.523771	0.498751	2146.808594
5916.621222	1.501179	0.498751	3494.867676
5916.622086	1.463445	0.498751	4759.284180
5916.623174	1.420360	0.498751	6304.636230
5916.624111	0.600626	0.498751	6867.422852
5916.624986	0.089546	0.498751	6945.775391
5916.625964	0.086012	0.498751	7029.895020
5916.626970	0.085972	0.498751	7116.382324
5916.627849	0.085887	0.498751	7191.877441
5916.628826	0.085994	0.498751	7275.893066
5916.629869	0.086001	0.498751	7365.592285
5916.630782	0.085983	0.498751	7444.094238
5916.631638	0.085983	0.498751	7517.695312
5916.632707	0.086063	0.498751	7609.696777
5916.633702	0.085968	0.498751	7695.234863
5917.633532	1.097406	0.525645	521.267883
5917.634412	1.517816	0.525645	1856.946045
5917.635285	1.509767	0.525645	3174.972656
5917.636281	1.468920	0.525645	4638.016602
5917.637218	1.429735	0.525645	5977.678223
5917.638135	0.960601	0.525645	6858.548828
5917.639011	0.109135	0.525645	6954.150879
5917.640032	0.085917	0.525645	7041.872070
5917.640930	0.086067	0.525645	7119.160156
5917.641803	0.085961	0.525645	7194.203613
5917.642720	0.086008	0.525645	7273.073242
5917.643714	0.085869	0.525645	7358.427246
5917.644637	0.085902	0.525645	7437.714844
5917.645497	0.086093	0.525645	7511.754395
5917.646586	0.086056	0.525645	7605.469238
5917.647478	0.085906	0.525645	7682.097168
5918.674366	1.027434	0.502168	435.632050
5918.675366	1.515454	0.502168	1951.086182
5918.676421	1.500363	0.502168	3533.968750
5918.677322	1.461332	0.502168	4850.628906
5918.678245	1.424352	0.502168	6165.305664
5918.679128	0.833199	0.502168	6901.020508
5918.680103	0.095804	0.502168	6994.429687
5918.681010	0.085891	0.502168	7072.333008
5918.681892	0.085972	0.502168	7148.160156
5918.682838	0.086027	0.502168	7229.541504
5918.683786	0.085920	0.502168	7310.994141
5918.684711	0.085942	0.502168	7390.490723
5918.685574	0.085946	0.502168	7464.662109
5918.686610	0.086005	0.502168	7553.762695
5918.687503	0.085942	0.502168	7630.509277
5918.688421	0.085847	0.502168	7709.316895
5919.691812	1.085098	0.530386	575.101746
5919.692878	1.522606	0.530386	2198.199951
5919.693790	1.498590	0.530386	3564.914062
5919.694660	1.461097	0.530386	4836.068848
5919.695713	1.418481	0.530386	6329.729980
5919.696738	0.434304	0.530386	6774.891602
5919.697623	0.086993	0.530386	6851.880859
5919.698606	0.086016	0.530386	6936.434082
5919.699656	0.085968	0.530386	7026.700684
5919.700559	0.085942	0.530386	7104.306641
5919.701422	0.086038	0.530386	7178.557129
5919.702518	0.086144	0.530386	7272.970703
5919.703486	0.086005	0.530386	7356.223145
5919.704361	0.085939	0.530386	7431.419434
5919.705366	0.086056	0.530386	7517.905762
5919.706423	0.085961	0.530386	7608.766113
5920.730065	1.059759	0.508702	465.234406
5920.730941	1.515699	0.508702	1792.987061
5920.731976	1.505541	0.508702	3351.221680
5920.733020	1.461823	0.508702	4877.364258
5920.733906	1.424952	0.508702	6139.872070
5920.734809	0.812025	0.508702	6873.130859
5920.735882	0.090220	0.508702	6969.936523
5920.736836	0.085854	0.508702	7051.841797
5920.737692	0.085909	0.508702	7125.380371
5920.738702	0.085957	0.508702	7212.196777
5920.739745	0.085953	0.508702	7301.846191
5920.740635	0.085942	0.508702	7378.334961
5920.741569	0.086078	0.508702	7458.731934
5920.742618	0.086104	0.508702	7549.054687
5920.743557	0.085928	0.508702	7629.740723
5920.744427	0.085946	0.508702	7704.513672
5921.750458	1.024618	0.536473	432.388763
5921.751360	1.513055	0.536473	1797.164795
5921.752463	1.501436	0.536473	3453.248291
5921.753421	1.461647	0.536473	4853.505859
5921.754291	1.425813	0.536473	6093.962891
5921.755329	0.682643	0.536473	6802.545898
5921.756365	0.087700	0.536473	6893.403320
5921.757260	0.085887	0.536473	6970.272461
5921.758211	0.085983	0.536473	7052.041992
5921.759249	0.086016	0.536473	7141.326172
5921.760186	0.085953	0.536473	7221.864258
5921.761050	0.085961	0.536473	7296.134277
5921.762122	0.085975	0.536473	7388.299805
5921.763120	0.085953	0.536473	7474.081055
5921.764012	0.085880	0.536473	7550.686035
5921.764968	0.085983	0.536473	7632.885254
5922.785205	1.030942	0.517967	431.964874
5922.786247	1.521127	0.517967	2016.978760
5922.787153	1.504373	0.517967	3379.940430
5922.788023	1.467133	0.517967	4656.345703
5922.789082	1.424381	0.517967	6164.765625
5922.790042	0.729774	0.517967	6865.348633
5922.790918	0.092238	0.517967	6946.148926
5922.791861	0.085891	0.517967	7027.144043
5922.792906	0.085811	0.517967	7116.815918
5922.793793	0.085800	0.517967	7192.919922
5922.794655	0.085887	0.517967	7266.955078
5922.795712	0.085975	0.517967	7357.831055
5922.796653	0.085759	0.517967	7438.530762
5922.797523	0.085800	0.517967	7513.176270
5922.798442	0.085902	0.517967	7592.120117
5922.799520	0.085997	0.517967	7684.825195
5923.809738	1.051333	0.537492	459.432495
5923.810617	1.515666	0.537492	1791.703369
5923.811620	1.506390	0.537492	3302.612793
5923.812662	1.463324	0.537492	4827.396484
5923.813555	1.425985	0.537492	6100.801270
5923.814437	0.856249	0.537492	6856.012695
5923.815524	0.091234	0.537492	6955.184082
5923.816476	0.085829	0.537492	7036.893066
5923.817335	0.085961	0.537492	7110.733398
5923.818400	0.086056	0.537492	7202.382812
5923.819425	0.085953	0.537492	7290.484863
5923.820303	0.085931	0.537492	7365.932617
5923.821221	0.085935	0.537492	7444.820801
5923.822307	0.086027	0.537492	7538.245605
5923.823239	0.085946	0.537492	7618.347168
5923.824107	0.085953	0.537492	7692.954590
5924.839875	1.032261	0.541073	441.807617
5924.840741	1.514062	0.541073	1752.985718
5924.841781	1.505149	0.541073	3318.340820
5924.842805	1.462255	0.541073	4815.689453
5924.843698	1.425915	0.541073	6089.032227
5924.844687	0.755442	0.541073	6836.164062
5924.845741	0.089073	0.541073	6930.047363
5924.846653	0.085924	0.541073	7008.410156
5924.847516	0.085909	0.541073	7082.549805
5924.848598	0.086085	0.541073	7175.693848
5924.849578	0.085902	0.541073	7259.877930
5924.850468	0.085898	0.541073	7336.327637
5924.851440	0.086100	0.541073	7420.016602
5924.852482	0.085920	0.541073	7509.545898
5924.853380	0.085972	0.541073	7586.748535
5924.854239	0.085887	0.541073	7660.525879
5925.869087	1.112307	0.552936	570.613525
5925.869983	1.520951	0.552936	1933.385498
5925.870854	1.507851	0.552936	3246.724121
5925.871880	1.465338	0.552936	4750.161133
5925.872870	1.424183	0.552936	6160.102539
5925.873767	0.815186	0.552936	6891.324219
5925.874623	0.097200	0.552936	6974.527344
5925.875697	0.085909	0.552936	7066.793945
5925.876594	0.085865	0.552936	7143.815430
5925.877467	0.085876	0.552936	7218.785645
5925.878455	0.085964	0.552936	7303.718262
5925.879451	0.085891	0.552936	7389.265625
5925.880339	0.085880	0.552936	7465.527344
5925.881198	0.085997	0.552936	7539.398926
5925.882288	0.086060	0.552936	7633.204102
5925.883214	0.085880	0.552936	7712.729004
5926.895628	1.096047	0.551422	545.831604
5926.896527	1.519779	0.551422	1912.113037
5926.897389	1.506980	0.551422	3211.129883
5926.898493	1.462826	0.551422	4826.089844
5926.899463	1.422660	0.551422	6206.069824
5926.900344	0.778466	0.551422	6891.897949
5926.901349	0.092117	0.551422	6984.475098
5926.902401	0.085931	0.551422	7074.875000
5926.903301	0.085811	0.551422	7152.104492
5926.904211	0.085833	0.551422	7230.211914
5926.905087	0.085931	0.551422	7305.487793
5926.906041	0.085854	0.551422	7387.393066
5926.906970	0.085902	0.551422	7467.196289
5926.907843	0.085862	0.551422	7542.153809
5926.908829	0.085942	0.551422	7626.893066
5926.909744	0.085862	0.551422	7705.456543
5927.927225	1.041116	0.552135	441.433075
5927.928299	1.520980	0.552135	2074.965576
5927.929315	1.497788	0.552135	3596.718262
5927.930209	1.460376	0.552135	4902.294434
5927.931198	1.420488	0.552135	6307.157227
5927.932257	0.479890	0.552135	6815.360840
5927.933144	0.086946	0.552135	6892.481934
5927.934008	0.085862	0.552135	6966.666504
5927.935098	0.086056	0.552135	7060.467285
5927.936061	0.085898	0.552135	7143.187500
5927.936927	0.085906	0.552135	7217.582031
5927.937992	0.086027	0.552135	7309.200195
5927.939027	0.085986	0.552135	7398.195801
5927.939916	0.085895	0.552135	7474.556152
5927.940840	0.085898	0.552135	7553.926270
5927.941884	0.085906	0.552135	7643.611816
5928.950206	1.030386	0.550491	438.944336
5928.951252	1.518776	0.550491	2027.583740
5928.952279	1.499539	0.550491	3567.609863
5928.953166	1.461617	0.550491	4864.064453
5928.954115	1.423286	0.550491	6214.762695
5928.955174	0.566455	0.550491	6814.638672
5928.956093	0.087513	0.550491	6895.063477
5928.956963	0.085939	0.550491	6969.830078
5928.958003	0.085964	0.550491	7059.232910
5928.959031	0.085854	0.550491	7147.491211
5928.959919	0.085836	0.550491	7223.713867
5928.960884	0.085979	0.550491	7306.683594
5928.961946	0.085935	0.550491	7397.946777
5928.962855	0.085931	0.550491	7476.058594
5928.963723	0.085935	0.550491	7550.650391
5928.964788	0.085994	0.550491	7642.233398
5929.984533	1.083589	0.538205	559.131836
5929.985558	1.523503	0.538205	2120.722900
5929.986446	1.501783	0.538205	3454.306641
5929.987310	1.464701	0.538205	4719.808105
5929.988361	1.422587	0.538205	6214.946777
5929.989306	0.684573	0.538205	6861.868164
5929.990177	0.091311	0.538205	6941.399902
5929.991131	0.085931	0.538205	7023.378418
5929.992175	0.085851	0.538205	7113.006836
5929.993052	0.085851	0.538205	7188.297852
5929.993909	0.085833	0.538205	7261.856445
5929.994946	0.085935	0.538205	7350.971191
5929.995898	0.085895	0.538205	7432.743164
5929.996769	0.085854	0.538205	7507.522461
5929.997669	0.085920	0.538205	7584.850586
5929.998744	0.085939	0.538205	7677.234863
5931.008045	1.132969	0.546870	593.675659
5931.009031	1.523635	0.546870	2095.979980
5931.009923	1.503051	0.546870	3436.701172
5931.010938	1.460786	0.546870	4919.398926
5931.011981	1.418405	0.546870	6398.794922
5931.012868	0.587373	0.546870	6919.794922
5931.013756	0.089403	0.546870	6999.185059
5931.014839	0.086041	0.546870	7092.367676
5931.015787	0.085939	0.546870	7173.837402
5931.016646	0.086012	0.546870	7247.721680
5931.017681	0.086100	0.546870	7336.834961
5931.018732	0.085994	0.546870	7427.214355
5931.019604	0.085924	0.546870	7502.140137
5931.020534	0.085876	0.546870	7582.005371
5931.021599	0.086034	0.546870	7673.631348
5931.022545	0.085983	0.546870	7754.970703
5932.038156	1.101456	0.539313	551.829590
5932.039101	1.521731	0.539313	1989.865356
5932.039974	1.505881	0.539313	3304.499756
5932.041047	1.461138	0.539313	4872.300293
5932.042063	1.419745	0.539313	6314.761230
5932.042963	0.645941	0.539313	6896.108398
5932.043922	0.090568	0.539313	6982.962891
5932.044975	0.086012	0.539313	7073.533691
5932.045892	0.085906	0.539313	7152.309082
5932.046752	0.086005	0.539313	7226.272949
5932.047823	0.085986	0.539313	7318.364258
5932.048818	0.085884	0.539313	7403.818848
5932.049699	0.085851	0.539313	7479.453613
5932.050682	0.086016	0.539313	7564.006836
5932.051718	0.085924	0.539313	7653.024414
5932.052625	0.085887	0.539313	7730.924316
